# E (eV)   ldos(E)   pdos(E)   
 -6.292  0.401E-05  0.401E-05
 -6.282  0.596E-03  0.596E-03
 -6.272  0.120E-01  0.120E-01
 -6.262  0.325E-01  0.325E-01
 -6.252  0.120E-01  0.120E-01
 -6.242  0.596E-03  0.596E-03
 -6.232  0.401E-05  0.401E-05
 -6.222  0.432E-08  0.432E-08
 -6.212  0.175E-05  0.175E-05
 -6.202  0.630E-03  0.630E-03
 -6.192  0.307E-01  0.307E-01
 -6.182  0.202E+00  0.202E+00
 -6.172  0.181E+00  0.181E+00
 -6.162  0.573E-01  0.573E-01
 -6.152  0.168E+00  0.168E+00
 -6.142  0.107E+00  0.107E+00
 -6.132  0.927E-02  0.927E-02
 -6.122  0.108E-03  0.108E-03
 -6.112  0.172E-06  0.172E-06
 -6.102  0.368E-10  0.368E-10
 -6.092  0.147E-12  0.147E-12
 -6.082  0.232E-08  0.232E-08
 -6.072  0.498E-05  0.498E-05
 -6.062  0.145E-02  0.145E-02
 -6.052  0.569E-01  0.569E-01
 -6.042  0.303E+00  0.303E+00
 -6.032  0.218E+00  0.218E+00
 -6.022  0.213E-01  0.213E-01
 -6.012  0.281E-03  0.281E-03
 -6.002  0.501E-06  0.501E-06
 -5.992  0.754E-06  0.754E-06
 -5.982  0.451E-03  0.451E-03
 -5.972  0.365E-01  0.365E-01
 -5.962  0.399E+00  0.399E+00
 -5.952  0.593E+00  0.593E+00
 -5.942  0.156E+00  0.156E+00
 -5.932  0.196E+00  0.196E+00
 -5.922  0.135E+00  0.135E+00
 -5.912  0.128E-01  0.128E-01
 -5.902  0.165E-03  0.165E-03
 -5.892  0.286E-06  0.286E-06
 -5.882  0.674E-10  0.674E-10
 -5.872  0.385E-14  0.385E-14
 -5.862  0.525E-10  0.525E-10
 -5.852  0.219E-06  0.219E-06
 -5.842  0.123E-03  0.123E-03
 -5.832  0.941E-02  0.941E-02
 -5.822  0.972E-01  0.972E-01
 -5.812  0.136E+00  0.136E+00
 -5.802  0.257E-01  0.257E-01
 -5.792  0.658E-03  0.658E-03
 -5.782  0.228E-05  0.228E-05
 -5.772  0.399E-05  0.399E-05
 -5.762  0.145E-02  0.145E-02
 -5.752  0.718E-01  0.718E-01
 -5.742  0.480E+00  0.480E+00
 -5.732  0.436E+00  0.436E+00
 -5.722  0.133E+00  0.133E+00
 -5.712  0.492E+00  0.492E+00
 -5.702  0.408E+00  0.408E+00
 -5.692  0.458E-01  0.458E-01
 -5.682  0.697E-03  0.697E-03
 -5.672  0.143E-05  0.143E-05
 -5.662  0.399E-09  0.399E-09
 -5.652  0.141E-10  0.141E-10
 -5.642  0.101E-06  0.101E-06
 -5.632  0.982E-04  0.982E-04
 -5.622  0.129E-01  0.129E-01
 -5.612  0.230E+00  0.230E+00
 -5.602  0.555E+00  0.555E+00
 -5.592  0.181E+00  0.181E+00
 -5.582  0.800E-02  0.800E-02
 -5.572  0.478E-04  0.478E-04
 -5.562  0.764E-06  0.764E-06
 -5.552  0.308E-03  0.308E-03
 -5.542  0.179E-01  0.179E-01
 -5.532  0.162E+00  0.162E+00
 -5.522  0.447E+00  0.447E+00
 -5.512  0.530E+00  0.530E+00
 -5.502  0.117E+00  0.117E+00
 -5.492  0.359E-02  0.359E-02
 -5.482  0.150E-04  0.150E-04
 -5.472  0.846E-08  0.846E-08
 -5.462  0.647E-12  0.647E-12
 -5.452  0.849E-17  0.849E-17
 -5.442  0.190E-12  0.190E-12
 -5.432  0.272E-08  0.272E-08
 -5.422  0.529E-05  0.529E-05
 -5.412  0.139E-02  0.139E-02
 -5.402  0.496E-01  0.496E-01
 -5.392  0.239E+00  0.239E+00
 -5.382  0.156E+00  0.156E+00
 -5.372  0.137E-01  0.137E-01
 -5.362  0.164E-03  0.164E-03
 -5.352  0.269E-06  0.269E-06
 -5.342  0.937E-05  0.937E-05
 -5.332  0.312E-02  0.312E-02
 -5.322  0.141E+00  0.141E+00
 -5.312  0.863E+00  0.863E+00
 -5.302  0.833E+00  0.833E+00
 -5.292  0.567E+00  0.567E+00
 -5.282  0.269E+00  0.269E+00
 -5.272  0.959E-01  0.959E-01
 -5.262  0.113E+00  0.113E+00
 -5.252  0.225E-01  0.225E-01
 -5.242  0.603E-03  0.603E-03
 -5.232  0.219E-05  0.219E-05
 -5.222  0.108E-08  0.108E-08
 -5.212  0.954E-10  0.954E-10
 -5.202  0.448E-06  0.448E-06
 -5.192  0.285E-03  0.285E-03
 -5.182  0.245E-01  0.245E-01
 -5.172  0.285E+00  0.285E+00
 -5.162  0.450E+00  0.450E+00
 -5.152  0.959E-01  0.959E-01
 -5.142  0.287E-02  0.287E-02
 -5.132  0.123E-01  0.123E-01
 -5.122  0.208E+00  0.208E+00
 -5.112  0.479E+00  0.479E+00
 -5.102  0.149E+00  0.149E+00
 -5.092  0.756E-02  0.756E-02
 -5.082  0.607E-01  0.607E-01
 -5.072  0.393E+00  0.393E+00
 -5.062  0.344E+00  0.344E+00
 -5.052  0.408E-01  0.408E-01
 -5.042  0.654E-03  0.654E-03
 -5.032  0.131E-04  0.131E-04
 -5.022  0.205E-02  0.205E-02
 -5.012  0.486E-01  0.486E-01
 -5.002  0.156E+00  0.156E+00
 -4.992  0.681E-01  0.681E-01
 -4.982  0.401E-02  0.401E-02
 -4.972  0.320E-04  0.320E-04
 -4.962  0.345E-07  0.345E-07
 -4.952  0.231E-10  0.231E-10
 -4.942  0.119E-06  0.119E-06
 -4.932  0.105E-03  0.105E-03
 -4.922  0.127E-01  0.127E-01
 -4.912  0.206E+00  0.206E+00
 -4.902  0.454E+00  0.454E+00
 -4.892  0.137E+00  0.137E+00
 -4.882  0.869E-01  0.869E-01
 -4.872  0.637E+00  0.637E+00
 -4.862  0.746E+00  0.746E+00
 -4.852  0.131E+00  0.131E+00
 -4.842  0.341E-02  0.341E-02
 -4.832  0.127E-04  0.127E-04
 -4.822  0.398E-06  0.398E-06
 -4.812  0.304E-03  0.304E-03
 -4.802  0.319E-01  0.319E-01
 -4.792  0.453E+00  0.453E+00
 -4.782  0.872E+00  0.872E+00
 -4.772  0.227E+00  0.227E+00
 -4.762  0.956E-02  0.956E-02
 -4.752  0.671E-01  0.671E-01
 -4.742  0.389E+00  0.389E+00
 -4.732  0.306E+00  0.306E+00
 -4.722  0.326E-01  0.326E-01
 -4.712  0.477E-03  0.477E-03
 -4.702  0.261E-02  0.261E-02
 -4.692  0.119E+00  0.119E+00
 -4.682  0.736E+00  0.736E+00
 -4.672  0.616E+00  0.616E+00
 -4.662  0.697E-01  0.697E-01
 -4.652  0.107E-02  0.107E-02
 -4.642  0.222E-05  0.222E-05
 -4.632  0.622E-09  0.622E-09
 -4.622  0.236E-13  0.236E-13
 -4.612  0.443E-18  0.443E-18
 -4.602  0.636E-13  0.636E-13
 -4.592  0.124E-08  0.124E-08
 -4.582  0.325E-05  0.325E-05
 -4.572  0.116E-02  0.116E-02
 -4.562  0.556E-01  0.556E-01
 -4.552  0.363E+00  0.363E+00
 -4.542  0.320E+00  0.320E+00
 -4.532  0.679E-01  0.679E-01
 -4.522  0.307E+00  0.307E+00
 -4.512  0.475E+00  0.475E+00
 -4.502  0.127E+00  0.127E+00
 -4.492  0.642E-02  0.642E-02
 -4.482  0.579E-04  0.579E-04
 -4.472  0.656E-04  0.656E-04
 -4.462  0.622E-02  0.622E-02
 -4.452  0.800E-01  0.800E-01
 -4.442  0.144E+00  0.144E+00
 -4.432  0.151E+00  0.151E+00
 -4.422  0.408E+00  0.408E+00
 -4.412  0.191E+00  0.191E+00
 -4.402  0.676E-01  0.676E-01
 -4.392  0.205E+00  0.205E+00
 -4.382  0.102E+00  0.102E+00
 -4.372  0.693E-02  0.693E-02
 -4.362  0.490E-02  0.490E-02
 -4.352  0.165E+00  0.165E+00
 -4.342  0.776E+00  0.776E+00
 -4.332  0.703E+00  0.703E+00
 -4.322  0.851E+00  0.851E+00
 -4.312  0.421E+00  0.421E+00
 -4.302  0.297E-01  0.297E-01
 -4.292  0.283E-03  0.283E-03
 -4.282  0.365E-06  0.365E-06
 -4.272  0.363E-09  0.363E-09
 -4.262  0.125E-05  0.125E-05
 -4.252  0.713E-03  0.713E-03
 -4.242  0.568E-01  0.568E-01
 -4.232  0.654E+00  0.654E+00
 -4.222  0.117E+01  0.117E+01
 -4.212  0.353E+00  0.353E+00
 -4.202  0.180E-01  0.180E-01
 -4.192  0.297E-03  0.297E-03
 -4.182  0.153E-01  0.153E-01
 -4.172  0.211E+00  0.211E+00
 -4.162  0.420E+00  0.420E+00
 -4.152  0.170E+00  0.170E+00
 -4.142  0.265E-01  0.265E-01
 -4.132  0.431E-01  0.431E-01
 -4.122  0.569E+00  0.569E+00
 -4.112  0.119E+01  0.119E+01
 -4.102  0.380E+00  0.380E+00
 -4.092  0.178E-01  0.178E-01
 -4.082  0.119E-03  0.119E-03
 -4.072  0.110E-06  0.110E-06
 -4.062  0.530E-08  0.530E-08
 -4.052  0.965E-05  0.965E-05
 -4.042  0.239E-02  0.239E-02
 -4.032  0.800E-01  0.800E-01
 -4.022  0.363E+00  0.363E+00
 -4.012  0.253E+00  0.253E+00
 -4.002  0.304E+00  0.304E+00
 -3.992  0.355E+00  0.355E+00
 -3.982  0.595E-01  0.595E-01
 -3.972  0.135E-02  0.135E-02
 -3.962  0.149E-04  0.149E-04
 -3.952  0.263E-02  0.263E-02
 -3.942  0.875E-01  0.875E-01
 -3.932  0.394E+00  0.394E+00
 -3.922  0.241E+00  0.241E+00
 -3.912  0.642E-01  0.642E-01
 -3.902  0.325E+00  0.325E+00
 -3.892  0.326E+00  0.326E+00
 -3.882  0.206E+00  0.206E+00
 -3.872  0.727E+00  0.727E+00
 -3.862  0.437E+00  0.437E+00
 -3.852  0.388E-01  0.388E-01
 -3.842  0.962E-01  0.962E-01
 -3.832  0.384E+00  0.384E+00
 -3.822  0.209E+00  0.209E+00
 -3.812  0.333E-01  0.333E-01
 -3.802  0.329E+00  0.329E+00
 -3.792  0.870E+00  0.870E+00
 -3.782  0.666E+00  0.666E+00
 -3.772  0.584E+00  0.584E+00
 -3.762  0.314E+00  0.314E+00
 -3.752  0.357E-01  0.357E-01
 -3.742  0.585E-03  0.585E-03
 -3.732  0.131E-05  0.131E-05
 -3.722  0.425E-09  0.425E-09
 -3.712  0.194E-06  0.194E-06
 -3.702  0.175E-03  0.175E-03
 -3.692  0.214E-01  0.214E-01
 -3.682  0.355E+00  0.355E+00
 -3.672  0.795E+00  0.795E+00
 -3.662  0.241E+00  0.241E+00
 -3.652  0.989E-02  0.989E-02
 -3.642  0.549E-04  0.549E-04
 -3.632  0.353E-04  0.353E-04
 -3.622  0.722E-02  0.722E-02
 -3.612  0.200E+00  0.200E+00
 -3.602  0.751E+00  0.751E+00
 -3.592  0.381E+00  0.381E+00
 -3.582  0.300E-01  0.300E-01
 -3.572  0.494E-01  0.494E-01
 -3.562  0.869E-01  0.869E-01
 -3.552  0.208E-01  0.208E-01
 -3.542  0.674E-03  0.674E-03
 -3.532  0.565E-05  0.565E-05
 -3.522  0.118E-02  0.118E-02
 -3.512  0.703E-01  0.703E-01
 -3.502  0.566E+00  0.566E+00
 -3.492  0.617E+00  0.617E+00
 -3.482  0.910E-01  0.910E-01
 -3.472  0.345E-02  0.345E-02
 -3.462  0.632E-01  0.632E-01
 -3.452  0.331E+00  0.331E+00
 -3.442  0.235E+00  0.235E+00
 -3.432  0.225E-01  0.225E-01
 -3.422  0.292E-03  0.292E-03
 -3.412  0.514E-06  0.514E-06
 -3.402  0.122E-09  0.122E-09
 -3.392  0.215E-10  0.215E-10
 -3.382  0.151E-06  0.151E-06
 -3.372  0.143E-03  0.143E-03
 -3.362  0.184E-01  0.184E-01
 -3.352  0.320E+00  0.320E+00
 -3.342  0.752E+00  0.752E+00
 -3.332  0.242E+00  0.242E+00
 -3.322  0.933E-01  0.933E-01
 -3.312  0.352E+00  0.352E+00
 -3.302  0.294E+00  0.294E+00
 -3.292  0.851E+00  0.851E+00
 -3.282  0.118E+01  0.118E+01
 -3.272  0.267E+00  0.267E+00
 -3.262  0.966E-02  0.966E-02
 -3.252  0.538E-04  0.538E-04
 -3.242  0.440E-07  0.440E-07
 -3.232  0.510E-11  0.510E-11
 -3.222  0.818E-16  0.818E-16
 -3.212  0.000E+00  0.000E+00
 -3.202  0.000E+00  0.000E+00
 -3.192  0.000E+00  0.000E+00
 -3.182  0.000E+00  0.000E+00
 -3.172  0.000E+00  0.000E+00
 -3.162  0.000E+00  0.000E+00
 -3.152  0.000E+00  0.000E+00
 -3.142  0.000E+00  0.000E+00
 -3.132  0.000E+00  0.000E+00
 -3.122  0.000E+00  0.000E+00
 -3.112  0.925E-15  0.925E-15
 -3.102  0.371E-10  0.371E-10
 -3.092  0.201E-06  0.201E-06
 -3.082  0.147E-03  0.147E-03
 -3.072  0.146E-01  0.146E-01
 -3.062  0.197E+00  0.197E+00
 -3.052  0.400E+00  0.400E+00
 -3.042  0.386E+00  0.386E+00
 -3.032  0.286E+00  0.286E+00
 -3.022  0.469E-01  0.469E-01
 -3.012  0.164E+00  0.164E+00
 -3.002  0.341E+00  0.341E+00
 -2.992  0.964E-01  0.964E-01
 -2.982  0.369E-02  0.369E-02
 -2.972  0.191E-04  0.191E-04
 -2.962  0.527E-05  0.527E-05
 -2.952  0.187E-02  0.187E-02
 -2.942  0.900E-01  0.900E-01
 -2.932  0.586E+00  0.586E+00
 -2.922  0.517E+00  0.517E+00
 -2.912  0.617E-01  0.617E-01
 -2.902  0.996E-03  0.996E-03
 -2.892  0.218E-05  0.218E-05
 -2.882  0.742E-07  0.742E-07
 -2.872  0.829E-04  0.829E-04
 -2.862  0.126E-01  0.126E-01
 -2.852  0.261E+00  0.261E+00
 -2.842  0.730E+00  0.730E+00
 -2.832  0.276E+00  0.276E+00
 -2.822  0.283E-01  0.283E-01
 -2.812  0.193E+00  0.193E+00
 -2.802  0.355E+00  0.355E+00
 -2.792  0.887E-01  0.887E-01
 -2.782  0.300E-02  0.300E-02
 -2.772  0.137E-04  0.137E-04
 -2.762  0.847E-08  0.847E-08
 -2.752  0.709E-12  0.709E-12
 -2.742  0.804E-17  0.804E-17
 -2.732  0.000E+00  0.000E+00
 -2.722  0.000E+00  0.000E+00
 -2.712  0.000E+00  0.000E+00
 -2.702  0.000E+00  0.000E+00
 -2.692  0.000E+00  0.000E+00
 -2.682  0.000E+00  0.000E+00
 -2.672  0.000E+00  0.000E+00
 -2.662  0.172E-15  0.172E-15
 -2.652  0.811E-11  0.811E-11
 -2.642  0.516E-07  0.516E-07
 -2.632  0.445E-04  0.445E-04
 -2.622  0.518E-02  0.518E-02
 -2.612  0.818E-01  0.818E-01
 -2.602  0.175E+00  0.175E+00
 -2.592  0.504E-01  0.504E-01
 -2.582  0.197E-02  0.197E-02
 -2.572  0.104E-04  0.104E-04
 -2.562  0.748E-08  0.748E-08
 -2.552  0.725E-12  0.725E-12
 -2.542  0.951E-17  0.951E-17
 -2.532  0.000E+00  0.000E+00
 -2.522  0.000E+00  0.000E+00
 -2.512  0.216E-15  0.216E-15
 -2.502  0.858E-11  0.858E-11
 -2.492  0.461E-07  0.461E-07
 -2.482  0.336E-04  0.336E-04
 -2.472  0.331E-02  0.331E-02
 -2.462  0.441E-01  0.441E-01
 -2.452  0.796E-01  0.796E-01
 -2.442  0.302E-01  0.302E-01
 -2.432  0.163E+00  0.163E+00
 -2.422  0.328E+00  0.328E+00
 -2.412  0.901E-01  0.901E-01
 -2.402  0.335E-02  0.335E-02
 -2.392  0.271E-04  0.271E-04
 -2.382  0.240E-02  0.240E-02
 -2.372  0.762E-01  0.762E-01
 -2.362  0.327E+00  0.327E+00
 -2.352  0.190E+00  0.190E+00
 -2.342  0.256E-01  0.256E-01
 -2.332  0.111E+00  0.111E+00
 -2.322  0.157E+00  0.157E+00
 -2.312  0.299E-01  0.299E-01
 -2.302  0.773E-03  0.773E-03
 -2.292  0.270E-05  0.270E-05
 -2.282  0.128E-08  0.128E-08
 -2.272  0.817E-13  0.817E-13
 -2.262  0.188E-13  0.188E-13
 -2.252  0.380E-09  0.380E-09
 -2.242  0.104E-05  0.104E-05
 -2.232  0.385E-03  0.385E-03
 -2.222  0.193E-01  0.193E-01
 -2.212  0.131E+00  0.131E+00
 -2.202  0.120E+00  0.120E+00
 -2.192  0.149E-01  0.149E-01
 -2.182  0.251E-03  0.251E-03
 -2.172  0.570E-06  0.570E-06
 -2.162  0.176E-09  0.176E-09
 -2.152  0.732E-14  0.732E-14
 -2.142  0.000E+00  0.000E+00
 -2.132  0.000E+00  0.000E+00
 -2.122  0.000E+00  0.000E+00
 -2.112  0.000E+00  0.000E+00
 -2.102  0.000E+00  0.000E+00
 -2.092  0.000E+00  0.000E+00
 -2.082  0.000E+00  0.000E+00
 -2.072  0.000E+00  0.000E+00
 -2.062  0.000E+00  0.000E+00
 -2.052  0.000E+00  0.000E+00
 -2.042  0.000E+00  0.000E+00
 -2.032  0.000E+00  0.000E+00
 -2.022  0.000E+00  0.000E+00
 -2.012  0.000E+00  0.000E+00
 -2.002  0.000E+00  0.000E+00
 -1.992  0.289E-15  0.289E-15
 -1.982  0.138E-10  0.138E-10
 -1.972  0.886E-07  0.886E-07
 -1.962  0.772E-04  0.772E-04
 -1.952  0.911E-02  0.911E-02
 -1.942  0.145E+00  0.145E+00
 -1.932  0.314E+00  0.314E+00
 -1.922  0.918E-01  0.918E-01
 -1.912  0.363E-02  0.363E-02
 -1.902  0.195E-04  0.195E-04
 -1.892  0.174E-07  0.174E-07
 -1.882  0.781E-05  0.781E-05
 -1.872  0.256E-02  0.256E-02
 -1.862  0.122E+00  0.122E+00
 -1.852  0.943E+00  0.943E+00
 -1.842  0.139E+01  0.139E+01
 -1.832  0.413E+00  0.413E+00
 -1.822  0.216E-01  0.216E-01
 -1.812  0.171E-03  0.171E-03
 -1.802  0.192E-06  0.192E-06
 -1.792  0.318E-10  0.318E-10
 -1.782  0.202E-07  0.202E-07
 -1.772  0.254E-04  0.254E-04
 -1.762  0.430E-02  0.430E-02
 -1.752  0.987E-01  0.987E-01
 -1.742  0.306E+00  0.306E+00
 -1.732  0.129E+00  0.129E+00
 -1.722  0.732E-02  0.732E-02
 -1.712  0.564E-04  0.564E-04
 -1.702  0.587E-07  0.587E-07
 -1.692  0.827E-11  0.827E-11
 -1.682  0.101E-10  0.101E-10
 -1.672  0.696E-07  0.696E-07
 -1.662  0.646E-04  0.646E-04
 -1.652  0.812E-02  0.812E-02
 -1.642  0.138E+00  0.138E+00
 -1.632  0.318E+00  0.318E+00
 -1.622  0.991E-01  0.991E-01
 -1.612  0.418E-02  0.418E-02
 -1.602  0.239E-04  0.239E-04
 -1.592  0.184E-07  0.184E-07
 -1.582  0.193E-11  0.193E-11
 -1.572  0.290E-11  0.290E-11
 -1.562  0.250E-07  0.250E-07
 -1.552  0.293E-04  0.293E-04
 -1.542  0.463E-02  0.463E-02
 -1.532  0.992E-01  0.992E-01
 -1.522  0.290E+00  0.290E+00
 -1.512  0.202E+00  0.202E+00
 -1.502  0.523E+00  0.523E+00
 -1.492  0.435E+00  0.435E+00
 -1.482  0.112E+00  0.112E+00
 -1.472  0.150E+00  0.150E+00
 -1.462  0.686E-01  0.686E-01
 -1.452  0.307E+00  0.307E+00
 -1.442  0.854E+00  0.854E+00
 -1.432  0.595E+00  0.595E+00
 -1.422  0.304E+00  0.304E+00
 -1.412  0.116E+00  0.116E+00
 -1.402  0.270E-01  0.270E-01
 -1.392  0.197E+00  0.197E+00
 -1.382  0.313E+00  0.313E+00
 -1.372  0.340E+00  0.340E+00
 -1.362  0.641E+00  0.641E+00
 -1.352  0.271E+00  0.271E+00
 -1.342  0.228E-01  0.228E-01
 -1.332  0.442E-03  0.442E-03
 -1.322  0.117E-01  0.117E-01
 -1.312  0.161E+00  0.161E+00
 -1.302  0.302E+00  0.302E+00
 -1.292  0.764E-01  0.764E-01
 -1.282  0.544E-02  0.544E-02
 -1.272  0.641E-01  0.641E-01
 -1.262  0.242E+00  0.242E+00
 -1.252  0.359E+00  0.359E+00
 -1.242  0.209E+00  0.209E+00
 -1.232  0.467E-01  0.467E-01
 -1.222  0.199E+00  0.199E+00
 -1.212  0.316E+00  0.316E+00
 -1.202  0.491E+00  0.491E+00
 -1.192  0.328E+00  0.328E+00
 -1.182  0.330E-01  0.330E-01
 -1.172  0.547E-03  0.547E-03
 -1.162  0.129E-01  0.129E-01
 -1.152  0.236E+00  0.236E+00
 -1.142  0.588E+00  0.588E+00
 -1.132  0.198E+00  0.198E+00
 -1.122  0.901E-02  0.901E-02
 -1.112  0.134E-03  0.134E-03
 -1.102  0.871E-02  0.871E-02
 -1.092  0.131E+00  0.131E+00
 -1.082  0.265E+00  0.265E+00
 -1.072  0.741E-01  0.741E-01
 -1.062  0.250E-01  0.250E-01
 -1.052  0.619E-01  0.619E-01
 -1.042  0.232E-01  0.232E-01
 -1.032  0.212E-02  0.212E-02
 -1.022  0.403E-01  0.403E-01
 -1.012  0.234E+00  0.234E+00
 -1.002  0.234E+00  0.234E+00
 -0.992  0.366E+00  0.366E+00
 -0.982  0.313E+00  0.313E+00
 -0.972  0.110E+00  0.110E+00
 -0.962  0.282E+00  0.282E+00
 -0.952  0.148E+00  0.148E+00
 -0.942  0.105E-01  0.105E-01
 -0.932  0.102E-03  0.102E-03
 -0.922  0.132E-06  0.132E-06
 -0.912  0.234E-10  0.234E-10
 -0.902  0.559E-15  0.559E-15
 -0.892  0.000E+00  0.000E+00
 -0.882  0.000E+00  0.000E+00
 -0.872  0.000E+00  0.000E+00
 -0.862  0.206E-17  0.206E-17
 -0.852  0.245E-12  0.245E-12
 -0.842  0.393E-08  0.393E-08
 -0.832  0.853E-05  0.853E-05
 -0.822  0.251E-02  0.251E-02
 -0.812  0.999E-01  0.999E-01
 -0.802  0.538E+00  0.538E+00
 -0.792  0.392E+00  0.392E+00
 -0.782  0.387E-01  0.387E-01
 -0.772  0.524E-03  0.524E-03
 -0.762  0.207E-02  0.207E-02
 -0.752  0.840E-01  0.840E-01
 -0.742  0.484E+00  0.484E+00
 -0.732  0.506E+00  0.506E+00
 -0.722  0.165E+00  0.165E+00
 -0.712  0.142E-01  0.142E-01
 -0.702  0.254E-02  0.254E-02
 -0.692  0.617E-01  0.617E-01
 -0.682  0.220E+00  0.220E+00
 -0.672  0.106E+00  0.106E+00
 -0.662  0.695E-02  0.695E-02
 -0.652  0.614E-04  0.614E-04
 -0.642  0.778E-07  0.778E-07
 -0.632  0.771E-05  0.771E-05
 -0.622  0.190E-02  0.190E-02
 -0.612  0.635E-01  0.635E-01
 -0.602  0.287E+00  0.287E+00
 -0.592  0.175E+00  0.175E+00
 -0.582  0.145E-01  0.145E-01
 -0.572  0.162E-03  0.162E-03
 -0.562  0.246E-06  0.246E-06
 -0.552  0.505E-10  0.505E-10
 -0.542  0.140E-14  0.140E-14
 -0.532  0.000E+00  0.000E+00
 -0.522  0.000E+00  0.000E+00
 -0.512  0.000E+00  0.000E+00
 -0.502  0.208E-16  0.208E-16
 -0.492  0.151E-11  0.151E-11
 -0.482  0.149E-07  0.149E-07
 -0.472  0.198E-04  0.198E-04
 -0.462  0.357E-02  0.357E-02
 -0.452  0.872E-01  0.872E-01
 -0.442  0.289E+00  0.289E+00
 -0.432  0.182E+00  0.182E+00
 -0.422  0.407E+00  0.407E+00
 -0.412  0.405E+00  0.405E+00
 -0.402  0.602E-01  0.602E-01
 -0.392  0.115E+00  0.115E+00
 -0.382  0.409E+00  0.409E+00
 -0.372  0.212E+00  0.212E+00
 -0.362  0.159E-01  0.159E-01
 -0.352  0.171E-03  0.171E-03
 -0.342  0.257E-06  0.257E-06
 -0.332  0.537E-10  0.537E-10
 -0.322  0.155E-14  0.155E-14
 -0.312  0.223E-12  0.223E-12
 -0.302  0.276E-08  0.276E-08
 -0.292  0.467E-05  0.467E-05
 -0.282  0.112E-02  0.112E-02
 -0.272  0.413E-01  0.413E-01
 -0.262  0.271E+00  0.271E+00
 -0.252  0.342E+00  0.342E+00
 -0.242  0.749E-01  0.749E-01
 -0.232  0.247E-02  0.247E-02
 -0.222  0.114E-04  0.114E-04
 -0.212  0.722E-08  0.722E-08
 -0.202  0.620E-12  0.620E-12
 -0.192  0.722E-17  0.722E-17
 -0.182  0.000E+00  0.000E+00
 -0.172  0.000E+00  0.000E+00
 -0.162  0.000E+00  0.000E+00
 -0.152  0.000E+00  0.000E+00
 -0.142  0.000E+00  0.000E+00
 -0.132  0.000E+00  0.000E+00
 -0.122  0.000E+00  0.000E+00
 -0.112  0.000E+00  0.000E+00
 -0.102  0.000E+00  0.000E+00
 -0.092  0.690E-16  0.690E-16
 -0.082  0.413E-11  0.413E-11
 -0.072  0.334E-07  0.334E-07
 -0.062  0.366E-04  0.366E-04
 -0.052  0.543E-02  0.543E-02
 -0.042  0.110E+00  0.110E+00
 -0.032  0.314E+00  0.314E+00
 -0.022  0.177E+00  0.177E+00
 -0.012  0.169E+00  0.169E+00
 -0.002  0.437E+00  0.437E+00
  0.008  0.191E+00  0.191E+00
  0.018  0.113E-01  0.113E-01
  0.028  0.908E-04  0.908E-04
  0.038  0.987E-07  0.987E-07
  0.048  0.145E-10  0.145E-10
  0.058  0.289E-15  0.289E-15
  0.068  0.831E-15  0.831E-15
  0.078  0.256E-10  0.256E-10
  0.088  0.107E-06  0.107E-06
  0.098  0.604E-04  0.604E-04
  0.108  0.462E-02  0.462E-02
  0.118  0.477E-01  0.477E-01
  0.128  0.668E-01  0.668E-01
  0.138  0.127E-01  0.127E-01
  0.148  0.325E-03  0.325E-03
  0.158  0.113E-05  0.113E-05
  0.168  0.164E-07  0.164E-07
  0.178  0.240E-04  0.240E-04
  0.188  0.494E-02  0.494E-02
  0.198  0.137E+00  0.137E+00
  0.208  0.516E+00  0.516E+00
  0.218  0.262E+00  0.262E+00
  0.228  0.181E-01  0.181E-01
  0.238  0.168E-03  0.168E-03
  0.248  0.212E-06  0.212E-06
  0.258  0.363E-10  0.363E-10
  0.268  0.838E-15  0.838E-15
  0.278  0.000E+00  0.000E+00
  0.288  0.000E+00  0.000E+00
  0.298  0.709E-15  0.709E-15
  0.308  0.274E-10  0.274E-10
  0.318  0.143E-06  0.143E-06
  0.328  0.102E-03  0.102E-03
  0.338  0.974E-02  0.974E-02
  0.348  0.126E+00  0.126E+00
  0.358  0.222E+00  0.222E+00
  0.368  0.528E-01  0.528E-01
  0.378  0.635E-02  0.635E-02
  0.388  0.825E-01  0.825E-01
  0.398  0.197E+00  0.197E+00
  0.408  0.640E-01  0.640E-01
  0.418  0.281E-02  0.281E-02
  0.428  0.167E-04  0.167E-04
  0.438  0.102E-06  0.102E-06
  0.448  0.730E-04  0.730E-04
  0.458  0.815E-02  0.815E-02
  0.468  0.123E+00  0.123E+00
  0.478  0.252E+00  0.252E+00
  0.488  0.696E-01  0.696E-01
  0.498  0.261E-02  0.261E-02
  0.508  0.132E-04  0.132E-04
  0.518  0.905E-08  0.905E-08
  0.528  0.840E-12  0.840E-12
  0.538  0.106E-16  0.106E-16
  0.548  0.000E+00  0.000E+00
  0.558  0.000E+00  0.000E+00
  0.568  0.000E+00  0.000E+00
  0.578  0.000E+00  0.000E+00
  0.588  0.000E+00  0.000E+00
  0.598  0.000E+00  0.000E+00
  0.608  0.000E+00  0.000E+00
  0.618  0.496E-16  0.496E-16
  0.628  0.311E-11  0.311E-11
  0.638  0.264E-07  0.264E-07
  0.648  0.304E-04  0.304E-04
  0.658  0.472E-02  0.472E-02
  0.668  0.994E-01  0.994E-01
  0.678  0.283E+00  0.283E+00
  0.688  0.109E+00  0.109E+00
  0.698  0.569E-02  0.569E-02
  0.708  0.432E-04  0.432E-04
  0.718  0.898E-03  0.898E-03
  0.728  0.370E-01  0.370E-01
  0.738  0.206E+00  0.206E+00
  0.748  0.155E+00  0.155E+00
  0.758  0.159E-01  0.159E-01
  0.768  0.219E-03  0.219E-03
  0.778  0.410E-06  0.410E-06
  0.788  0.283E-06  0.283E-06
  0.798  0.160E-03  0.160E-03
  0.808  0.122E-01  0.122E-01
  0.818  0.126E+00  0.126E+00
  0.828  0.177E+00  0.177E+00
  0.838  0.335E-01  0.335E-01
  0.848  0.858E-03  0.858E-03
  0.858  0.297E-05  0.297E-05
  0.868  0.140E-08  0.140E-08
  0.878  0.887E-13  0.887E-13
  0.888  0.763E-18  0.763E-18
  0.898  0.000E+00  0.000E+00
  0.908  0.000E+00  0.000E+00
  0.918  0.000E+00  0.000E+00
  0.928  0.000E+00  0.000E+00
  0.938  0.000E+00  0.000E+00
  0.948  0.000E+00  0.000E+00
  0.958  0.000E+00  0.000E+00
  0.968  0.000E+00  0.000E+00
  0.978  0.000E+00  0.000E+00
  0.988  0.000E+00  0.000E+00
  0.998  0.160E-18  0.160E-18
  1.008  0.119E-13  0.119E-13
  1.018  0.121E-09  0.121E-09
  1.028  0.166E-06  0.166E-06
  1.038  0.308E-04  0.308E-04
  1.048  0.773E-03  0.773E-03
  1.058  0.263E-02  0.263E-02
  1.068  0.121E-02  0.121E-02
  1.078  0.751E-04  0.751E-04
  1.088  0.633E-06  0.633E-06
  1.098  0.721E-09  0.721E-09
  1.108  0.111E-12  0.111E-12
  1.118  0.117E-11  0.117E-11
  1.128  0.119E-07  0.119E-07
  1.138  0.164E-04  0.164E-04
  1.148  0.304E-02  0.304E-02
  1.158  0.768E-01  0.768E-01
  1.168  0.288E+00  0.288E+00
  1.178  0.405E+00  0.405E+00
  1.188  0.409E+00  0.409E+00
  1.198  0.931E-01  0.931E-01
  1.208  0.288E-01  0.288E-01
  1.218  0.581E-02  0.581E-02
  1.228  0.943E-03  0.943E-03
  1.238  0.646E-02  0.646E-02
  1.248  0.814E-02  0.814E-02
  1.258  0.202E-02  0.202E-02
  1.268  0.147E-01  0.147E-01
  1.278  0.643E-01  0.643E-01
  1.288  0.465E-01  0.465E-01
  1.298  0.707E-02  0.707E-02
  1.308  0.231E-03  0.231E-03
  1.318  0.128E-05  0.128E-05
  1.328  0.395E-06  0.395E-06
  1.338  0.799E-04  0.799E-04
  1.348  0.220E-02  0.220E-02
  1.358  0.816E-02  0.816E-02
  1.368  0.441E-02  0.441E-02
  1.378  0.948E-02  0.948E-02
  1.388  0.545E-01  0.545E-01
  1.398  0.125E+00  0.125E+00
  1.408  0.965E-01  0.965E-01
  1.418  0.128E-01  0.128E-01
  1.428  0.239E-03  0.239E-03
  1.438  0.546E-04  0.546E-04
  1.448  0.324E-02  0.324E-02
  1.458  0.264E-01  0.264E-01
  1.468  0.322E-01  0.322E-01
  1.478  0.453E-01  0.453E-01
  1.488  0.763E-01  0.763E-01
  1.498  0.273E-01  0.273E-01
  1.508  0.544E-01  0.544E-01
  1.518  0.556E-01  0.556E-01
  1.528  0.781E-02  0.781E-02
  1.538  0.148E-03  0.148E-03
  1.548  0.943E-06  0.943E-06
  1.558  0.512E-04  0.512E-04
  1.568  0.631E-03  0.631E-03
  1.578  0.105E-02  0.105E-02
  1.588  0.238E-03  0.238E-03
  1.598  0.728E-05  0.728E-05
  1.608  0.271E-05  0.271E-05
  1.618  0.318E-03  0.318E-03
  1.628  0.560E-02  0.560E-02
  1.638  0.177E-01  0.177E-01
  1.648  0.150E-01  0.150E-01
  1.658  0.983E-02  0.983E-02
  1.668  0.331E-02  0.331E-02
  1.678  0.179E-03  0.179E-03
  1.688  0.246E-05  0.246E-05
  1.698  0.434E-03  0.434E-03
  1.708  0.223E-01  0.223E-01
  1.718  0.155E+00  0.155E+00
  1.728  0.146E+00  0.146E+00
  1.738  0.429E-01  0.429E-01
  1.748  0.960E-01  0.960E-01
  1.758  0.578E-01  0.578E-01
  1.768  0.110E-01  0.110E-01
  1.778  0.102E-02  0.102E-02
  1.788  0.113E-03  0.113E-03
  1.798  0.456E-02  0.456E-02
  1.808  0.355E-01  0.355E-01
  1.818  0.463E-01  0.463E-01
  1.828  0.248E-01  0.248E-01
  1.838  0.960E-01  0.960E-01
  1.848  0.146E+00  0.146E+00
  1.858  0.517E-01  0.517E-01
  1.868  0.302E-02  0.302E-02
  1.878  0.249E-04  0.249E-04
  1.888  0.359E-07  0.359E-07
  1.898  0.118E-04  0.118E-04
  1.908  0.238E-02  0.238E-02
  1.918  0.651E-01  0.651E-01
  1.928  0.249E+00  0.249E+00
  1.938  0.151E+00  0.151E+00
  1.948  0.205E-01  0.205E-01
  1.958  0.720E-03  0.720E-03
  1.968  0.460E-05  0.460E-05
  1.978  0.426E-08  0.426E-08
  1.988  0.542E-12  0.542E-12
  1.998  0.934E-17  0.934E-17
  2.008  0.163E-19  0.163E-19
  2.018  0.185E-14  0.185E-14
  2.028  0.285E-10  0.285E-10
  2.038  0.596E-07  0.596E-07
  2.048  0.174E-04  0.174E-04
  2.058  0.886E-03  0.886E-03
  2.068  0.153E-01  0.153E-01
  2.078  0.806E-01  0.806E-01
  2.088  0.694E-01  0.694E-01
  2.098  0.827E-02  0.827E-02
  2.108  0.134E-03  0.134E-03
  2.118  0.293E-06  0.293E-06
  2.128  0.196E-08  0.196E-08
  2.138  0.371E-05  0.371E-05
  2.148  0.997E-03  0.997E-03
  2.158  0.362E-01  0.362E-01
  2.168  0.178E+00  0.178E+00
  2.178  0.120E+00  0.120E+00
  2.188  0.137E-01  0.137E-01
  2.198  0.129E-02  0.129E-02
  2.208  0.505E-02  0.505E-02
  2.218  0.900E-02  0.900E-02
  2.228  0.323E-01  0.323E-01
  2.238  0.725E-01  0.725E-01
  2.248  0.269E-01  0.269E-01
  2.258  0.784E-02  0.784E-02
  2.268  0.496E-01  0.496E-01
  2.278  0.535E-01  0.535E-01
  2.288  0.781E-02  0.781E-02
  2.298  0.240E-03  0.240E-03
  2.308  0.792E-02  0.792E-02
  2.318  0.113E+00  0.113E+00
  2.328  0.240E+00  0.240E+00
  2.338  0.730E-01  0.730E-01
  2.348  0.501E-02  0.501E-02
  2.358  0.558E-02  0.558E-02
  2.368  0.217E-02  0.217E-02
  2.378  0.149E-02  0.149E-02
  2.388  0.191E-01  0.191E-01
  2.398  0.359E-01  0.359E-01
  2.408  0.113E-01  0.113E-01
  2.418  0.112E-01  0.112E-01
  2.428  0.453E-01  0.453E-01
  2.438  0.475E-01  0.475E-01
  2.448  0.128E-01  0.128E-01
  2.458  0.492E-01  0.492E-01
  2.468  0.611E-01  0.611E-01
  2.478  0.178E-01  0.178E-01
  2.488  0.198E-02  0.198E-02
  2.498  0.468E-04  0.468E-04
  2.508  0.835E-06  0.835E-06
  2.518  0.867E-04  0.867E-04
  2.528  0.151E-02  0.151E-02
  2.538  0.356E-02  0.356E-02
  2.548  0.140E-02  0.140E-02
  2.558  0.168E-02  0.168E-02
  2.568  0.137E-02  0.137E-02
  2.578  0.155E-03  0.155E-03
  2.588  0.338E-05  0.338E-05
  2.598  0.290E-03  0.290E-03
  2.608  0.114E-01  0.114E-01
  2.618  0.604E-01  0.604E-01
  2.628  0.433E-01  0.433E-01
  2.638  0.473E-02  0.473E-02
  2.648  0.207E-01  0.207E-01
  2.658  0.112E+00  0.112E+00
  2.668  0.872E-01  0.872E-01
  2.678  0.209E-01  0.209E-01
  2.688  0.437E-02  0.437E-02
  2.698  0.271E-03  0.271E-03
  2.708  0.425E-02  0.425E-02
  2.718  0.383E-01  0.383E-01
  2.728  0.467E-01  0.467E-01
  2.738  0.770E-02  0.770E-02
  2.748  0.173E-03  0.173E-03
  2.758  0.268E-03  0.268E-03
  2.768  0.106E-01  0.106E-01
  2.778  0.583E-01  0.583E-01
  2.788  0.794E-01  0.794E-01
  2.798  0.103E+00  0.103E+00
  2.808  0.345E-01  0.345E-01
  2.818  0.162E-02  0.162E-02
  2.828  0.115E-04  0.115E-04
  2.838  0.162E-03  0.162E-03
  2.848  0.301E-02  0.301E-02
  2.858  0.981E-02  0.981E-02
  2.868  0.138E-01  0.138E-01
  2.878  0.713E-02  0.713E-02
  2.888  0.673E-03  0.673E-03
  2.898  0.383E-02  0.383E-02
  2.908  0.394E-01  0.394E-01
  2.918  0.693E-01  0.693E-01
  2.928  0.194E-01  0.194E-01
  2.938  0.833E-02  0.833E-02
  2.948  0.109E-01  0.109E-01
  2.958  0.233E-02  0.233E-02
  2.968  0.325E-02  0.325E-02
  2.978  0.626E-02  0.626E-02
  2.988  0.166E-02  0.166E-02
  2.998  0.597E-04  0.597E-04
  3.008  0.291E-06  0.291E-06
  3.018  0.191E-09  0.191E-09
  3.028  0.440E-10  0.440E-10
  3.038  0.156E-06  0.156E-06
  3.048  0.748E-04  0.748E-04
  3.058  0.486E-02  0.486E-02
  3.068  0.427E-01  0.427E-01
  3.078  0.507E-01  0.507E-01
  3.088  0.825E-02  0.825E-02
  3.098  0.807E-02  0.807E-02
  3.108  0.100E+00  0.100E+00
  3.118  0.177E+00  0.177E+00
  3.128  0.469E-01  0.469E-01
  3.138  0.297E-02  0.297E-02
  3.148  0.134E-03  0.134E-03
  3.158  0.142E-02  0.142E-02
  3.168  0.474E-02  0.474E-02
  3.178  0.395E-02  0.395E-02
  3.188  0.261E-01  0.261E-01
  3.198  0.500E-01  0.500E-01
  3.208  0.130E-01  0.130E-01
  3.218  0.461E-03  0.461E-03
  3.228  0.221E-05  0.221E-05
  3.238  0.416E-05  0.416E-05
  3.248  0.343E-03  0.343E-03
  3.258  0.383E-02  0.383E-02
  3.268  0.580E-02  0.580E-02
  3.278  0.199E-02  0.199E-02
  3.288  0.168E-01  0.168E-01
  3.298  0.490E-01  0.490E-01
  3.308  0.308E-01  0.308E-01
  3.318  0.155E-01  0.155E-01
  3.328  0.313E-01  0.313E-01
  3.338  0.351E-01  0.351E-01
  3.348  0.558E-02  0.558E-02
  3.358  0.769E-03  0.769E-03
  3.368  0.155E-01  0.155E-01
  3.378  0.498E-01  0.498E-01
  3.388  0.217E-01  0.217E-01
  3.398  0.128E-02  0.128E-02
  3.408  0.231E-04  0.231E-04
  3.418  0.179E-02  0.179E-02
  3.428  0.334E-01  0.334E-01
  3.438  0.847E-01  0.847E-01
  3.448  0.290E-01  0.290E-01
  3.458  0.135E-02  0.135E-02
  3.468  0.250E-04  0.250E-04
  3.478  0.153E-02  0.153E-02
  3.488  0.191E-01  0.191E-01
  3.498  0.323E-01  0.323E-01
  3.508  0.738E-02  0.738E-02
  3.518  0.229E-03  0.229E-03
  3.528  0.168E-03  0.168E-03
  3.538  0.383E-02  0.383E-02
  3.548  0.144E-01  0.144E-01
  3.558  0.381E-01  0.381E-01
  3.568  0.606E-01  0.606E-01
  3.578  0.208E-01  0.208E-01
  3.588  0.109E-01  0.109E-01
  3.598  0.274E-02  0.274E-02
  3.608  0.110E-03  0.110E-03
  3.618  0.127E-02  0.127E-02
  3.628  0.173E-01  0.173E-01
  3.638  0.320E-01  0.320E-01
  3.648  0.806E-02  0.806E-02
  3.658  0.276E-03  0.276E-03
  3.668  0.128E-05  0.128E-05
  3.678  0.812E-09  0.812E-09
  3.688  0.698E-13  0.698E-13
  3.698  0.418E-17  0.418E-17
  3.708  0.268E-19  0.268E-19
  3.718  0.288E-22  0.288E-22
  3.728  0.909E-25  0.909E-25
  3.738  0.173E-15  0.173E-15
  3.748  0.565E-11  0.565E-11
  3.758  0.250E-07  0.250E-07
  3.768  0.149E-04  0.149E-04
  3.778  0.121E-02  0.121E-02
  3.788  0.132E-01  0.132E-01
  3.798  0.196E-01  0.196E-01
  3.808  0.394E-02  0.394E-02
  3.818  0.339E-03  0.339E-03
  3.828  0.874E-02  0.874E-02
  3.838  0.458E-01  0.458E-01
  3.848  0.429E-01  0.429E-01
  3.858  0.174E-01  0.174E-01
  3.868  0.240E-02  0.240E-02
  3.878  0.184E-02  0.184E-02
  3.888  0.797E-02  0.797E-02
  3.898  0.479E-02  0.479E-02
  3.908  0.390E-03  0.390E-03
  3.918  0.430E-05  0.430E-05
  3.928  0.641E-08  0.641E-08
  3.938  0.129E-11  0.129E-11
  3.948  0.362E-16  0.362E-16
  3.958  0.407E-18  0.407E-18
  3.968  0.629E-18  0.629E-18
  3.978  0.132E-16  0.132E-16
  3.988  0.516E-16  0.516E-16
  3.998  0.542E-16  0.542E-16
  4.008  0.139E-16  0.139E-16
  4.018  0.582E-18  0.582E-18
  4.028  0.138E-19  0.138E-19
  4.038  0.190E-17  0.190E-17
  4.048  0.470E-16  0.470E-16
  4.058  0.158E-15  0.158E-15
  4.068  0.716E-16  0.716E-16
  4.078  0.440E-17  0.440E-17
  4.088  0.446E-17  0.446E-17
  4.098  0.279E-12  0.279E-12
  4.108  0.239E-08  0.239E-08
  4.118  0.276E-05  0.276E-05
  4.128  0.431E-03  0.431E-03
  4.138  0.913E-02  0.913E-02
  4.148  0.262E-01  0.262E-01
  4.158  0.138E-01  0.138E-01
  4.168  0.418E-01  0.418E-01
  4.178  0.740E-01  0.740E-01
  4.188  0.217E-01  0.217E-01
  4.198  0.101E-02  0.101E-02
  4.208  0.699E-05  0.699E-05
  4.218  0.690E-08  0.690E-08
  4.228  0.617E-07  0.617E-07
  4.238  0.342E-04  0.342E-04
  4.248  0.257E-02  0.257E-02
  4.258  0.262E-01  0.262E-01
  4.268  0.360E-01  0.360E-01
  4.278  0.714E-02  0.714E-02
  4.288  0.255E-02  0.255E-02
  4.298  0.177E-02  0.177E-02
  4.308  0.178E-03  0.178E-03
  4.318  0.243E-05  0.243E-05
  4.328  0.448E-08  0.448E-08
  4.338  0.112E-11  0.112E-11
  4.348  0.173E-12  0.173E-12
  4.358  0.147E-08  0.147E-08
  4.368  0.169E-05  0.169E-05
  4.378  0.263E-03  0.263E-03
  4.388  0.555E-02  0.555E-02
  4.398  0.158E-01  0.158E-01
  4.408  0.610E-02  0.610E-02
  4.418  0.319E-03  0.319E-03
  4.428  0.225E-05  0.225E-05
  4.438  0.216E-08  0.216E-08
  4.448  0.380E-07  0.380E-07
  4.458  0.220E-04  0.220E-04
  4.468  0.172E-02  0.172E-02
  4.478  0.183E-01  0.183E-01
  4.488  0.263E-01  0.263E-01
  4.498  0.511E-02  0.511E-02
  4.508  0.134E-03  0.134E-03
  4.518  0.478E-06  0.478E-06
  4.528  0.231E-09  0.231E-09
  4.538  0.151E-13  0.151E-13
  4.548  0.151E-16  0.151E-16
  4.558  0.331E-18  0.331E-18
  4.568  0.991E-21  0.991E-21
  4.578  0.401E-24  0.401E-24
  4.588  0.220E-28  0.220E-28
  4.598  0.224E-29  0.224E-29
  4.608  0.703E-25  0.703E-25
  4.618  0.298E-21  0.298E-21
  4.628  0.171E-18  0.171E-18
  4.638  0.133E-16  0.133E-16
  4.648  0.140E-15  0.140E-15
  4.658  0.200E-15  0.200E-15
  4.668  0.399E-16  0.399E-16
  4.678  0.128E-16  0.128E-16
  4.688  0.139E-16  0.139E-16
  4.698  0.220E-17  0.220E-17
  4.708  0.988E-18  0.988E-18
  4.718  0.352E-16  0.352E-16
  4.728  0.178E-15  0.178E-15
  4.738  0.122E-15  0.122E-15
  4.748  0.113E-16  0.113E-16
  4.758  0.142E-18  0.142E-18
  4.768  0.242E-21  0.242E-21
  4.778  0.556E-25  0.556E-25
  4.788  0.173E-29  0.173E-29
  4.798  0.000E+00  0.000E+00
  4.808  0.000E+00  0.000E+00
  4.818  0.000E+00  0.000E+00
  4.828  0.000E+00  0.000E+00
  4.838  0.000E+00  0.000E+00
  4.848  0.000E+00  0.000E+00
  4.858  0.000E+00  0.000E+00
  4.868  0.000E+00  0.000E+00
  4.878  0.347E-31  0.347E-31
  4.888  0.153E-26  0.153E-26
  4.898  0.906E-23  0.906E-23
  4.908  0.729E-20  0.729E-20
  4.918  0.793E-18  0.793E-18
  4.928  0.117E-16  0.117E-16
  4.938  0.259E-16  0.259E-16
  4.948  0.190E-16  0.190E-16
  4.958  0.859E-17  0.859E-17
  4.968  0.743E-18  0.743E-18
  4.978  0.892E-20  0.892E-20
  4.988  0.145E-22  0.145E-22
  4.998  0.319E-26  0.319E-26
  5.008  0.105E-30  0.105E-30
  5.018  0.353E-27  0.353E-27
  5.028  0.173E-23  0.173E-23
  5.038  0.115E-20  0.115E-20
  5.048  0.104E-18  0.104E-18
  5.058  0.127E-17  0.127E-17
  5.068  0.209E-17  0.209E-17
  5.078  0.466E-18  0.466E-18
  5.088  0.141E-19  0.141E-19
  5.098  0.575E-22  0.575E-22
  5.108  0.318E-25  0.318E-25
  5.118  0.238E-29  0.238E-29
  5.128  0.242E-34  0.242E-34
  5.138  0.000E+00  0.000E+00
  5.148  0.000E+00  0.000E+00
  5.158  0.000E+00  0.000E+00
  5.168  0.000E+00  0.000E+00
  5.178  0.000E+00  0.000E+00
  5.188  0.000E+00  0.000E+00
  5.198  0.000E+00  0.000E+00
  5.208  0.000E+00  0.000E+00
  5.218  0.000E+00  0.000E+00
  5.228  0.000E+00  0.000E+00
  5.238  0.000E+00  0.000E+00
  5.248  0.000E+00  0.000E+00
  5.258  0.000E+00  0.000E+00
  5.268  0.000E+00  0.000E+00
  5.278  0.000E+00  0.000E+00
  5.288  0.000E+00  0.000E+00
  5.298  0.000E+00  0.000E+00
  5.308  0.000E+00  0.000E+00
  5.318  0.000E+00  0.000E+00
  5.328  0.000E+00  0.000E+00
  5.338  0.000E+00  0.000E+00
  5.348  0.000E+00  0.000E+00
  5.358  0.000E+00  0.000E+00
  5.368  0.000E+00  0.000E+00
  5.378  0.000E+00  0.000E+00
  5.388  0.000E+00  0.000E+00
  5.398  0.000E+00  0.000E+00
  5.408  0.000E+00  0.000E+00
  5.418  0.000E+00  0.000E+00
  5.428  0.000E+00  0.000E+00
  5.438  0.000E+00  0.000E+00
  5.448  0.000E+00  0.000E+00
  5.458  0.000E+00  0.000E+00
  5.468  0.000E+00  0.000E+00
  5.478  0.000E+00  0.000E+00
  5.488  0.000E+00  0.000E+00
  5.498  0.000E+00  0.000E+00
  5.508  0.000E+00  0.000E+00
  5.518  0.000E+00  0.000E+00
  5.528  0.000E+00  0.000E+00
  5.538  0.000E+00  0.000E+00
  5.548  0.000E+00  0.000E+00
  5.558  0.000E+00  0.000E+00
  5.568  0.000E+00  0.000E+00
  5.578  0.000E+00  0.000E+00
  5.588  0.000E+00  0.000E+00
  5.598  0.000E+00  0.000E+00
  5.608  0.000E+00  0.000E+00
  5.618  0.000E+00  0.000E+00
  5.628  0.000E+00  0.000E+00
  5.638  0.000E+00  0.000E+00
  5.648  0.000E+00  0.000E+00
  5.658  0.321E-19  0.321E-19
  5.668  0.424E-14  0.424E-14
  5.678  0.761E-10  0.761E-10
  5.688  0.184E-06  0.184E-06
  5.698  0.605E-04  0.605E-04
  5.708  0.269E-02  0.269E-02
  5.718  0.162E-01  0.162E-01
  5.728  0.132E-01  0.132E-01
  5.738  0.145E-02  0.145E-02
  5.748  0.216E-04  0.216E-04
  5.758  0.435E-07  0.435E-07
  5.768  0.119E-10  0.119E-10
  5.778  0.439E-15  0.439E-15
  5.788  0.234E-17  0.234E-17
  5.798  0.155E-12  0.155E-12
  5.808  0.139E-08  0.139E-08
  5.818  0.169E-05  0.169E-05
  5.828  0.278E-03  0.278E-03
  5.838  0.617E-02  0.617E-02
  5.848  0.186E-01  0.186E-01
  5.858  0.105E-01  0.105E-01
  5.868  0.165E-01  0.165E-01
  5.878  0.119E-01  0.119E-01
  5.888  0.119E-02  0.119E-02
  5.898  0.179E-03  0.179E-03
  5.908  0.839E-02  0.839E-02
  5.918  0.587E-01  0.587E-01
  5.928  0.555E-01  0.555E-01
  5.938  0.711E-02  0.711E-02
  5.948  0.123E-03  0.123E-03
  5.958  0.289E-06  0.289E-06
  5.968  0.928E-08  0.928E-08
  5.978  0.972E-05  0.972E-05
  5.988  0.139E-02  0.139E-02
  5.998  0.270E-01  0.270E-01
  6.008  0.707E-01  0.707E-01
  6.018  0.251E-01  0.251E-01
  6.028  0.120E-02  0.120E-02
  6.038  0.800E-05  0.800E-05
  6.048  0.736E-04  0.736E-04
  6.058  0.404E-02  0.404E-02
  6.068  0.300E-01  0.300E-01
  6.078  0.301E-01  0.301E-01
  6.088  0.410E-02  0.410E-02
  6.098  0.755E-04  0.755E-04
  6.108  0.188E-06  0.188E-06
  6.118  0.639E-10  0.639E-10
  6.128  0.480E-08  0.480E-08
  6.138  0.554E-05  0.554E-05
  6.148  0.866E-03  0.866E-03
  6.158  0.183E-01  0.183E-01
  6.168  0.537E-01  0.537E-01
  6.178  0.471E-01  0.471E-01
  6.188  0.767E-01  0.767E-01
  6.198  0.300E-01  0.300E-01
  6.208  0.169E-01  0.169E-01
  6.218  0.751E-01  0.751E-01
  6.228  0.101E+00  0.101E+00
  6.238  0.215E-01  0.215E-01
  6.248  0.634E-03  0.634E-03
  6.258  0.278E-05  0.278E-05
  6.268  0.103E-03  0.103E-03
  6.278  0.606E-02  0.606E-02
  6.288  0.481E-01  0.481E-01
  6.298  0.540E-01  0.540E-01
  6.308  0.404E-01  0.404E-01
  6.318  0.680E-01  0.680E-01
  6.328  0.355E-01  0.355E-01
  6.338  0.438E-01  0.438E-01
  6.348  0.828E-01  0.828E-01
  6.358  0.251E-01  0.251E-01
  6.368  0.193E-02  0.193E-02
  6.378  0.258E-01  0.258E-01
  6.388  0.100E+00  0.100E+00
  6.398  0.526E-01  0.526E-01
  6.408  0.403E-02  0.403E-02
  6.418  0.113E-01  0.113E-01
  6.428  0.580E-01  0.580E-01
  6.438  0.445E-01  0.445E-01
  6.448  0.609E-01  0.609E-01
  6.458  0.120E+00  0.120E+00
  6.468  0.370E-01  0.370E-01
  6.478  0.168E-02  0.168E-02
  6.488  0.512E-03  0.512E-03
  6.498  0.158E-01  0.158E-01
  6.508  0.678E-01  0.678E-01
  6.518  0.393E-01  0.393E-01
  6.528  0.308E-02  0.308E-02
  6.538  0.326E-04  0.326E-04
  6.548  0.469E-07  0.469E-07
  6.558  0.120E-06  0.120E-06
  6.568  0.695E-04  0.695E-04
  6.578  0.579E-02  0.579E-02
  6.588  0.772E-01  0.772E-01
  6.598  0.197E+00  0.197E+00
  6.608  0.987E-01  0.987E-01
  6.618  0.116E-01  0.116E-01
  6.628  0.313E-01  0.313E-01
  6.638  0.429E-01  0.429E-01
  6.648  0.486E-01  0.486E-01
  6.658  0.102E+00  0.102E+00
  6.668  0.336E-01  0.336E-01
  6.678  0.151E-02  0.151E-02
  6.688  0.259E-04  0.259E-04
  6.698  0.303E-02  0.303E-02
  6.708  0.744E-01  0.744E-01
  6.718  0.267E+00  0.267E+00
  6.728  0.295E+00  0.295E+00
  6.738  0.262E+00  0.262E+00
  6.748  0.151E+00  0.151E+00
  6.758  0.854E-01  0.854E-01
  6.768  0.343E-01  0.343E-01
  6.778  0.750E-01  0.750E-01
  6.788  0.121E+00  0.121E+00
  6.798  0.672E-01  0.672E-01
  6.808  0.260E+00  0.260E+00
  6.818  0.281E+00  0.281E+00
  6.828  0.114E+00  0.114E+00
  6.838  0.718E-01  0.718E-01
  6.848  0.172E+00  0.172E+00
  6.858  0.230E+00  0.230E+00
  6.868  0.434E-01  0.434E-01
  6.878  0.111E-02  0.111E-02
  6.888  0.385E-05  0.385E-05
  6.898  0.221E-05  0.221E-05
  6.908  0.638E-03  0.638E-03
  6.918  0.249E-01  0.249E-01
  6.928  0.132E+00  0.132E+00
  6.938  0.948E-01  0.948E-01
  6.948  0.268E-01  0.268E-01
  6.958  0.855E-01  0.855E-01
  6.968  0.109E+00  0.109E+00
  6.978  0.117E+00  0.117E+00
  6.988  0.341E+00  0.341E+00
  6.998  0.434E+00  0.434E+00
  7.008  0.143E+00  0.143E+00
  7.018  0.109E+00  0.109E+00
  7.028  0.652E-01  0.652E-01
  7.038  0.553E-02  0.553E-02
  7.048  0.615E-03  0.615E-03
  7.058  0.289E-01  0.289E-01
  7.068  0.205E+00  0.205E+00
  7.078  0.214E+00  0.214E+00
  7.088  0.154E+00  0.154E+00
  7.098  0.130E+00  0.130E+00
  7.108  0.182E-01  0.182E-01
  7.118  0.186E-01  0.186E-01
  7.128  0.104E+00  0.104E+00
  7.138  0.833E-01  0.833E-01
  7.148  0.734E-01  0.734E-01
  7.158  0.165E+00  0.165E+00
  7.168  0.582E-01  0.582E-01
  7.178  0.215E-01  0.215E-01
  7.188  0.301E-01  0.301E-01
  7.198  0.648E-02  0.648E-02
  7.208  0.174E-02  0.174E-02
  7.218  0.462E-01  0.462E-01
  7.228  0.214E+00  0.214E+00
  7.238  0.250E+00  0.250E+00
  7.248  0.951E-01  0.951E-01
  7.258  0.967E-02  0.967E-02
  7.268  0.528E-01  0.528E-01
  7.278  0.187E+00  0.187E+00
  7.288  0.349E+00  0.349E+00
  7.298  0.302E+00  0.302E+00
  7.308  0.632E-01  0.632E-01
  7.318  0.176E-01  0.176E-01
  7.328  0.197E+00  0.197E+00
  7.338  0.580E+00  0.580E+00
  7.348  0.488E+00  0.488E+00
  7.358  0.271E+00  0.271E+00
  7.368  0.940E-01  0.940E-01
  7.378  0.154E-01  0.154E-01
  7.388  0.468E-03  0.468E-03
  7.398  0.198E-05  0.198E-05
  7.408  0.698E-07  0.698E-07
  7.418  0.646E-04  0.646E-04
  7.428  0.823E-02  0.823E-02
  7.438  0.142E+00  0.142E+00
  7.448  0.331E+00  0.331E+00
  7.458  0.104E+00  0.104E+00
  7.468  0.451E-02  0.451E-02
  7.478  0.473E-02  0.473E-02
  7.488  0.560E-01  0.560E-01
  7.498  0.903E-01  0.903E-01
  7.508  0.314E-01  0.314E-01
  7.518  0.171E+00  0.171E+00
  7.528  0.435E+00  0.435E+00
  7.538  0.451E+00  0.451E+00
  7.548  0.382E+00  0.382E+00
  7.558  0.868E-01  0.868E-01
  7.568  0.111E-01  0.111E-01
  7.578  0.520E-03  0.520E-03
  7.588  0.374E-05  0.374E-05
  7.598  0.367E-08  0.367E-08
  7.608  0.120E-08  0.120E-08
  7.618  0.227E-05  0.227E-05
  7.628  0.578E-03  0.578E-03
  7.638  0.199E-01  0.199E-01
  7.648  0.939E-01  0.939E-01
  7.658  0.756E-01  0.756E-01
  7.668  0.528E-01  0.528E-01
  7.678  0.185E-01  0.185E-01
  7.688  0.132E-02  0.132E-02
  7.698  0.161E-01  0.161E-01
  7.708  0.988E-01  0.988E-01
  7.718  0.106E+00  0.106E+00
  7.728  0.592E-01  0.592E-01
  7.738  0.323E-01  0.323E-01
  7.748  0.518E-01  0.518E-01
  7.758  0.181E-01  0.181E-01
  7.768  0.942E-03  0.942E-03
  7.778  0.598E-02  0.598E-02
  7.788  0.605E-01  0.605E-01
  7.798  0.877E-01  0.877E-01
  7.808  0.588E-01  0.588E-01
  7.818  0.170E+00  0.170E+00
  7.828  0.271E+00  0.271E+00
  7.838  0.702E-01  0.702E-01
  7.848  0.125E-01  0.125E-01
  7.858  0.132E+00  0.132E+00
  7.868  0.236E+00  0.236E+00
  7.878  0.579E-01  0.579E-01
  7.888  0.926E-02  0.926E-02
  7.898  0.841E-02  0.841E-02
  7.908  0.129E-02  0.129E-02
  7.918  0.208E-03  0.208E-03
  7.928  0.119E-01  0.119E-01
  7.938  0.105E+00  0.105E+00
  7.948  0.126E+00  0.126E+00
  7.958  0.204E-01  0.204E-01
  7.968  0.452E-03  0.452E-03
  7.978  0.953E-03  0.953E-03
  7.988  0.358E-01  0.358E-01
  7.998  0.195E+00  0.195E+00
  8.008  0.163E+00  0.163E+00
  8.018  0.867E-01  0.867E-01
  8.028  0.670E-01  0.670E-01
  8.038  0.873E-02  0.873E-02
  8.048  0.156E-03  0.156E-03
  8.058  0.371E-03  0.371E-03
  8.068  0.133E-01  0.133E-01
  8.078  0.723E-01  0.723E-01
  8.088  0.976E-01  0.976E-01
  8.098  0.175E+00  0.175E+00
  8.108  0.196E+00  0.196E+00
  8.118  0.265E+00  0.265E+00
  8.128  0.983E-01  0.983E-01
  8.138  0.341E-01  0.341E-01
  8.148  0.168E-01  0.168E-01
  8.158  0.609E-02  0.609E-02
  8.168  0.647E-01  0.647E-01
  8.178  0.119E+00  0.119E+00
  8.188  0.934E-01  0.934E-01
  8.198  0.325E+00  0.325E+00
  8.208  0.299E+00  0.299E+00
  8.218  0.138E+00  0.138E+00
  8.228  0.523E-01  0.523E-01
  8.238  0.408E-01  0.408E-01
  8.248  0.775E-01  0.775E-01
  8.258  0.232E-01  0.232E-01
  8.268  0.674E-02  0.674E-02
  8.278  0.488E-01  0.488E-01
  8.288  0.671E-01  0.671E-01
  8.298  0.411E-01  0.411E-01
  8.308  0.106E+00  0.106E+00
  8.318  0.760E-01  0.760E-01
  8.328  0.150E-01  0.150E-01
  8.338  0.164E-01  0.164E-01
  8.348  0.957E-01  0.957E-01
  8.358  0.850E-01  0.850E-01
  8.368  0.814E-01  0.814E-01
  8.378  0.156E+00  0.156E+00
  8.388  0.492E-01  0.492E-01
  8.398  0.252E-01  0.252E-01
  8.408  0.397E-01  0.397E-01
  8.418  0.186E-01  0.186E-01
  8.428  0.827E-02  0.827E-02
  8.438  0.985E-02  0.985E-02
  8.448  0.189E-02  0.189E-02
  8.458  0.489E-04  0.489E-04
  8.468  0.172E-06  0.172E-06
  8.478  0.817E-10  0.817E-10
  8.488  0.963E-13  0.963E-13
  8.498  0.113E-08  0.113E-08
  8.508  0.194E-05  0.194E-05
  8.518  0.474E-03  0.474E-03
  8.528  0.186E-01  0.186E-01
  8.538  0.150E+00  0.150E+00
  8.548  0.260E+00  0.260E+00
  8.558  0.777E-01  0.777E-01
  8.568  0.339E-02  0.339E-02
  8.578  0.223E-04  0.223E-04
  8.588  0.587E-03  0.587E-03
  8.598  0.282E-01  0.282E-01
  8.608  0.200E+00  0.200E+00
  8.618  0.200E+00  0.200E+00
  8.628  0.288E-01  0.288E-01
  8.638  0.394E-01  0.394E-01
  8.648  0.200E+00  0.200E+00
  8.658  0.248E+00  0.248E+00
  8.668  0.116E+00  0.116E+00
  8.678  0.369E-01  0.369E-01
  8.688  0.109E+00  0.109E+00
  8.698  0.192E+00  0.192E+00
  8.708  0.661E-01  0.661E-01
  8.718  0.812E-01  0.812E-01
  8.728  0.564E-01  0.564E-01
  8.738  0.543E-02  0.543E-02
  8.748  0.708E-04  0.708E-04
  8.758  0.125E-06  0.125E-06
  8.768  0.669E-06  0.669E-06
  8.778  0.267E-03  0.267E-03
  8.788  0.144E-01  0.144E-01
  8.798  0.105E+00  0.105E+00
  8.808  0.104E+00  0.104E+00
  8.818  0.139E-01  0.139E-01
  8.828  0.258E-03  0.258E-03
  8.838  0.117E-02  0.117E-02
  8.848  0.276E-01  0.276E-01
  8.858  0.114E+00  0.114E+00
  8.868  0.129E+00  0.129E+00
  8.878  0.365E-01  0.365E-01
  8.888  0.170E-02  0.170E-02
  8.898  0.624E-04  0.624E-04
  8.908  0.510E-02  0.510E-02
  8.918  0.687E-01  0.687E-01
  8.928  0.128E+00  0.128E+00
  8.938  0.625E-01  0.625E-01
  8.948  0.563E-01  0.563E-01
  8.958  0.131E-01  0.131E-01
  8.968  0.420E-03  0.420E-03
  8.978  0.938E-05  0.938E-05
  8.988  0.503E-03  0.503E-03
  8.998  0.556E-02  0.556E-02
  9.008  0.272E-01  0.272E-01
  9.018  0.117E+00  0.117E+00
  9.028  0.246E+00  0.246E+00
  9.038  0.998E-01  0.998E-01
  9.048  0.585E-02  0.585E-02
  9.058  0.109E-02  0.109E-02
  9.068  0.180E-01  0.180E-01
  9.078  0.687E-01  0.687E-01
  9.088  0.146E+00  0.146E+00
  9.098  0.102E+00  0.102E+00
  9.108  0.117E-01  0.117E-01
  9.118  0.192E-03  0.192E-03
  9.128  0.432E-06  0.432E-06
  9.138  0.132E-09  0.132E-09
  9.148  0.546E-14  0.546E-14
  9.158  0.190E-17  0.190E-17
  9.168  0.633E-14  0.633E-14
  9.178  0.133E-09  0.133E-09
  9.188  0.383E-06  0.383E-06
  9.198  0.150E-03  0.150E-03
  9.208  0.792E-02  0.792E-02
  9.218  0.583E-01  0.583E-01
  9.228  0.973E-01  0.973E-01
  9.238  0.223E+00  0.223E+00
  9.248  0.212E+00  0.212E+00
  9.258  0.324E-01  0.324E-01
  9.268  0.698E-03  0.698E-03
  9.278  0.205E-05  0.205E-05
  9.288  0.820E-09  0.820E-09
  9.298  0.230E-11  0.230E-11
  9.308  0.141E-07  0.141E-07
  9.318  0.119E-04  0.119E-04
  9.328  0.137E-02  0.137E-02
  9.338  0.213E-01  0.213E-01
  9.348  0.476E-01  0.476E-01
  9.358  0.456E-01  0.456E-01
  9.368  0.963E-01  0.963E-01
  9.378  0.714E-01  0.714E-01
  9.388  0.118E-01  0.118E-01
  9.398  0.247E-01  0.247E-01
  9.408  0.297E-01  0.297E-01
  9.418  0.765E-02  0.765E-02
  9.428  0.243E-01  0.243E-01
  9.438  0.319E-01  0.319E-01
  9.448  0.570E-02  0.570E-02
  9.458  0.279E-03  0.279E-03
  9.468  0.602E-02  0.602E-02
  9.478  0.403E-01  0.403E-01
  9.488  0.504E-01  0.504E-01
  9.498  0.161E-01  0.161E-01
  9.508  0.190E-02  0.190E-02
  9.518  0.576E-04  0.576E-04
  9.528  0.400E-03  0.400E-03
  9.538  0.174E-01  0.174E-01
  9.548  0.102E+00  0.102E+00
  9.558  0.819E-01  0.819E-01
  9.568  0.272E-01  0.272E-01
  9.578  0.580E-01  0.580E-01
  9.588  0.249E-01  0.249E-01
  9.598  0.755E-02  0.755E-02
  9.608  0.658E-01  0.658E-01
  9.618  0.131E+00  0.131E+00
  9.628  0.134E+00  0.134E+00
  9.638  0.656E-01  0.656E-01
  9.648  0.536E-01  0.536E-01
  9.658  0.239E-01  0.239E-01
  9.668  0.588E-01  0.588E-01
  9.678  0.946E-01  0.946E-01
  9.688  0.209E-01  0.209E-01
  9.698  0.628E-03  0.628E-03
  9.708  0.254E-05  0.254E-05
  9.718  0.278E-08  0.278E-08
  9.728  0.233E-05  0.233E-05
  9.738  0.532E-03  0.532E-03
  9.748  0.164E-01  0.164E-01
  9.758  0.687E-01  0.687E-01
  9.768  0.388E-01  0.388E-01
  9.778  0.300E-02  0.300E-02
  9.788  0.320E-02  0.320E-02
  9.798  0.620E-01  0.620E-01
  9.808  0.193E+00  0.193E+00
  9.818  0.154E+00  0.154E+00
  9.828  0.386E-01  0.386E-01
  9.838  0.178E-02  0.178E-02
  9.848  0.117E-04  0.117E-04
  9.858  0.156E-05  0.156E-05
  9.868  0.427E-03  0.427E-03
  9.878  0.163E-01  0.163E-01
  9.888  0.887E-01  0.887E-01
  9.898  0.738E-01  0.738E-01
  9.908  0.103E-01  0.103E-01
  9.918  0.257E-03  0.257E-03
  9.928  0.378E-03  0.378E-03
  9.938  0.804E-02  0.804E-02
  9.948  0.232E-01  0.232E-01
  9.958  0.907E-02  0.907E-02
  9.968  0.480E-03  0.480E-03
  9.978  0.343E-05  0.343E-05
  9.988  0.526E-08  0.526E-08
  9.998  0.351E-05  0.351E-05
 10.008  0.863E-03  0.863E-03
 10.018  0.287E-01  0.287E-01
 10.028  0.129E+00  0.129E+00
 10.038  0.789E-01  0.789E-01
 10.048  0.651E-02  0.651E-02
 10.058  0.728E-04  0.728E-04
 10.068  0.565E-04  0.565E-04
 10.078  0.645E-02  0.645E-02
 10.088  0.114E+00  0.114E+00
 10.098  0.298E+00  0.298E+00
 10.108  0.158E+00  0.158E+00
 10.118  0.125E+00  0.125E+00
 10.128  0.142E+00  0.142E+00
 10.138  0.527E-01  0.527E-01
 10.148  0.832E-01  0.832E-01
 10.158  0.237E+00  0.237E+00
 10.168  0.960E-01  0.960E-01
 10.178  0.534E-02  0.534E-02
 10.188  0.410E-04  0.410E-04
 10.198  0.355E-05  0.355E-05
 10.208  0.707E-03  0.707E-03
 10.218  0.206E-01  0.206E-01
 10.228  0.103E+00  0.103E+00
 10.238  0.115E+00  0.115E+00
 10.248  0.274E-01  0.274E-01
 10.258  0.108E-02  0.108E-02
 10.268  0.153E-02  0.153E-02
 10.278  0.342E-01  0.342E-01
 10.288  0.104E+00  0.104E+00
 10.298  0.425E-01  0.425E-01
 10.308  0.236E-02  0.236E-02
 10.318  0.177E-04  0.177E-04
 10.328  0.188E-07  0.188E-07
 10.338  0.628E-06  0.628E-06
 10.348  0.763E-04  0.763E-04
 10.358  0.125E-02  0.125E-02
 10.368  0.279E-02  0.279E-02
 10.378  0.108E-02  0.108E-02
 10.388  0.111E-01  0.111E-01
 10.398  0.700E-01  0.700E-01
 10.408  0.599E-01  0.599E-01
 10.418  0.806E-02  0.806E-02
 10.428  0.335E-01  0.335E-01
 10.438  0.135E+00  0.135E+00
 10.448  0.737E-01  0.737E-01
 10.458  0.552E-02  0.552E-02
 10.468  0.549E-02  0.549E-02
 10.478  0.582E-01  0.582E-01
 10.488  0.845E-01  0.845E-01
 10.498  0.267E-01  0.267E-01
 10.508  0.693E-01  0.693E-01
 10.518  0.630E-01  0.630E-01
 10.528  0.781E-02  0.781E-02
 10.538  0.131E-03  0.131E-03
 10.548  0.242E-04  0.242E-04
 10.558  0.182E-02  0.182E-02
 10.568  0.187E-01  0.187E-01
 10.578  0.265E-01  0.265E-01
 10.588  0.253E-01  0.253E-01
 10.598  0.123E+00  0.123E+00
 10.608  0.117E+00  0.117E+00
 10.618  0.173E-01  0.173E-01
 10.628  0.379E-03  0.379E-03
 10.638  0.484E-04  0.484E-04
 10.648  0.469E-02  0.469E-02
 10.658  0.663E-01  0.663E-01
 10.668  0.153E+00  0.153E+00
 10.678  0.803E-01  0.803E-01
 10.688  0.149E-01  0.149E-01
 10.698  0.464E-02  0.464E-02
 10.708  0.387E-01  0.387E-01
 10.718  0.562E-01  0.562E-01
 10.728  0.117E-01  0.117E-01
 10.738  0.103E-01  0.103E-01
 10.748  0.335E-01  0.335E-01
 10.758  0.426E-01  0.426E-01
 10.768  0.251E-01  0.251E-01
 10.778  0.934E-01  0.934E-01
 10.788  0.121E+00  0.121E+00
 10.798  0.282E-01  0.282E-01
 10.808  0.160E-01  0.160E-01
 10.818  0.372E-01  0.372E-01
 10.828  0.125E-01  0.125E-01
 10.838  0.566E-03  0.566E-03
 10.848  0.537E-05  0.537E-05
 10.858  0.386E-03  0.386E-03
 10.868  0.106E-01  0.106E-01
 10.878  0.396E-01  0.396E-01
 10.888  0.199E-01  0.199E-01
 10.898  0.272E-02  0.272E-02
 10.908  0.216E-01  0.216E-01
 10.918  0.465E-01  0.465E-01
 10.928  0.136E-01  0.136E-01
 10.938  0.535E-03  0.535E-03
 10.948  0.286E-05  0.286E-05
 10.958  0.661E-08  0.661E-08
 10.968  0.680E-05  0.680E-05
 10.978  0.137E-02  0.137E-02
 10.988  0.376E-01  0.376E-01
 10.998  0.139E+00  0.139E+00
 11.008  0.699E-01  0.699E-01
 11.018  0.519E-02  0.519E-02
 11.028  0.183E-01  0.183E-01
 11.038  0.106E+00  0.106E+00
 11.048  0.865E-01  0.865E-01
 11.058  0.993E-02  0.993E-02
 11.068  0.159E-03  0.159E-03
 11.078  0.353E-06  0.353E-06
 11.088  0.298E-05  0.298E-05
 11.098  0.565E-03  0.565E-03
 11.108  0.145E-01  0.145E-01
 11.118  0.503E-01  0.503E-01
 11.128  0.244E-01  0.244E-01
 11.138  0.256E-01  0.256E-01
 11.148  0.104E+00  0.104E+00
 11.158  0.807E-01  0.807E-01
 11.168  0.179E-01  0.179E-01
 11.178  0.100E-02  0.100E-02
 11.188  0.906E-05  0.906E-05
 11.198  0.114E-07  0.114E-07
 11.208  0.196E-11  0.196E-11
 11.218  0.465E-16  0.465E-16
 11.228  0.921E-13  0.921E-13
 11.238  0.105E-08  0.105E-08
 11.248  0.162E-05  0.162E-05
 11.258  0.339E-03  0.339E-03
 11.268  0.958E-02  0.958E-02
 11.278  0.372E-01  0.372E-01
 11.288  0.323E-01  0.323E-01
 11.298  0.457E-01  0.457E-01
 11.308  0.889E-01  0.889E-01
 11.318  0.111E+00  0.111E+00
 11.328  0.221E-01  0.221E-01
 11.338  0.600E-03  0.600E-03
 11.348  0.220E-05  0.220E-05
 11.358  0.301E-07  0.301E-07
 11.368  0.212E-04  0.212E-04
 11.378  0.210E-02  0.210E-02
 11.388  0.280E-01  0.280E-01
 11.398  0.508E-01  0.508E-01
 11.408  0.125E-01  0.125E-01
 11.418  0.196E-02  0.196E-02
 11.428  0.269E-01  0.269E-01
 11.438  0.633E-01  0.633E-01
 11.448  0.201E-01  0.201E-01
 11.458  0.868E-03  0.868E-03
 11.468  0.106E-03  0.106E-03
 11.478  0.589E-02  0.589E-02
 11.488  0.466E-01  0.466E-01
 11.498  0.499E-01  0.499E-01
 11.508  0.862E-02  0.862E-02
 11.518  0.126E-01  0.126E-01
 11.528  0.152E-01  0.152E-01
 11.538  0.250E-02  0.250E-02
 11.548  0.827E-03  0.827E-03
 11.558  0.256E-01  0.256E-01
 11.568  0.120E+00  0.120E+00
 11.578  0.986E-01  0.986E-01
 11.588  0.246E-01  0.246E-01
 11.598  0.170E-02  0.170E-02
 11.608  0.200E-02  0.200E-02
 11.618  0.256E-01  0.256E-01
 11.628  0.695E-01  0.695E-01
 11.638  0.101E+00  0.101E+00
 11.648  0.109E+00  0.109E+00
 11.658  0.499E-01  0.499E-01
 11.668  0.417E-02  0.417E-02
 11.678  0.414E-02  0.414E-02
 11.688  0.682E-02  0.682E-02
 11.698  0.115E-01  0.115E-01
 11.708  0.105E+00  0.105E+00
 11.718  0.153E+00  0.153E+00
 11.728  0.347E-01  0.347E-01
 11.738  0.598E-01  0.598E-01
 11.748  0.125E+00  0.125E+00
 11.758  0.724E-01  0.724E-01
 11.768  0.778E-01  0.778E-01
 11.778  0.217E-01  0.217E-01
 11.788  0.837E-03  0.837E-03
 11.798  0.250E-03  0.250E-03
 11.808  0.128E-02  0.128E-02
 11.818  0.905E-03  0.905E-03
 11.828  0.864E-04  0.864E-04
 11.838  0.112E-05  0.112E-05
 11.848  0.472E-08  0.472E-08
 11.858  0.527E-05  0.527E-05
 11.868  0.136E-02  0.136E-02
 11.878  0.474E-01  0.474E-01
 11.888  0.224E+00  0.224E+00
 11.898  0.145E+00  0.145E+00
 11.908  0.523E-01  0.523E-01
 11.918  0.145E+00  0.145E+00
 11.928  0.163E+00  0.163E+00
 11.938  0.448E-01  0.448E-01
 11.948  0.192E-02  0.192E-02
 11.958  0.114E-04  0.114E-04
 11.968  0.229E-05  0.229E-05
 11.978  0.568E-03  0.568E-03
 11.988  0.202E-01  0.202E-01
 11.998  0.104E+00  0.104E+00
 12.008  0.769E-01  0.769E-01
 12.018  0.821E-02  0.821E-02
 12.028  0.897E-03  0.897E-03
 12.038  0.252E-01  0.252E-01
 12.048  0.165E+00  0.165E+00
 12.058  0.253E+00  0.253E+00
 12.068  0.175E+00  0.175E+00
 12.078  0.130E+00  0.130E+00
 12.088  0.554E-01  0.554E-01
 12.098  0.685E-01  0.685E-01
 12.108  0.177E-01  0.177E-01
 12.118  0.198E-02  0.198E-02
 12.128  0.290E-01  0.290E-01
 12.138  0.889E-01  0.889E-01
 12.148  0.634E-01  0.634E-01
 12.158  0.244E-01  0.244E-01
 12.168  0.226E-02  0.226E-02
 12.178  0.390E-04  0.390E-04
 12.188  0.806E-03  0.806E-03
 12.198  0.100E-01  0.100E-01
 12.208  0.168E-01  0.168E-01
 12.218  0.382E-02  0.382E-02
 12.228  0.118E-03  0.118E-03
 12.238  0.129E-03  0.129E-03
 12.248  0.531E-02  0.531E-02
 12.258  0.297E-01  0.297E-01
 12.268  0.225E-01  0.225E-01
 12.278  0.231E-02  0.231E-02
 12.288  0.320E-04  0.320E-04
 12.298  0.116E-06  0.116E-06
 12.308  0.432E-05  0.432E-05
 12.318  0.453E-04  0.453E-04
 12.328  0.642E-04  0.642E-04
 12.338  0.123E-04  0.123E-04
 12.348  0.321E-06  0.321E-06
 12.358  0.113E-08  0.113E-08
 12.368  0.537E-12  0.537E-12
 12.378  0.346E-16  0.346E-16
 12.388  0.850E-19  0.850E-19
 12.398  0.827E-14  0.827E-14
 12.408  0.110E-09  0.110E-09
 12.418  0.199E-06  0.199E-06
 12.428  0.514E-04  0.514E-04
 12.438  0.210E-02  0.210E-02
 12.448  0.169E-01  0.169E-01
 12.458  0.288E-01  0.288E-01
 12.468  0.856E-02  0.856E-02
 12.478  0.257E-02  0.257E-02
 12.488  0.205E-01  0.205E-01
 12.498  0.311E-01  0.311E-01
 12.508  0.936E-02  0.936E-02
 12.518  0.572E-03  0.572E-03
 12.528  0.168E-04  0.168E-04
 12.538  0.884E-03  0.884E-03
 12.548  0.110E-01  0.110E-01
 12.558  0.287E-01  0.287E-01
 12.568  0.460E-01  0.460E-01
 12.578  0.458E-01  0.458E-01
 12.588  0.140E+00  0.140E+00
 12.598  0.190E+00  0.190E+00
 12.608  0.371E-01  0.371E-01
 12.618  0.148E-02  0.148E-02
 12.628  0.423E-02  0.423E-02
 12.638  0.176E-01  0.176E-01
 12.648  0.128E-01  0.128E-01
 12.658  0.146E-02  0.146E-02
 12.668  0.248E-04  0.248E-04
 12.678  0.345E-04  0.345E-04
 12.688  0.258E-03  0.258E-03
 12.698  0.159E-02  0.159E-02
 12.708  0.238E-01  0.238E-01
 12.718  0.929E-01  0.929E-01
 12.728  0.118E+00  0.118E+00
 12.738  0.444E-01  0.444E-01
 12.748  0.384E-01  0.384E-01
 12.758  0.158E-01  0.158E-01
 12.768  0.302E-01  0.302E-01
 12.778  0.545E-01  0.545E-01
 12.788  0.136E-01  0.136E-01
 12.798  0.478E-03  0.478E-03
 12.808  0.162E-03  0.162E-03
 12.818  0.190E-03  0.190E-03
 12.828  0.305E-04  0.305E-04
 12.838  0.682E-06  0.682E-06
 12.848  0.145E-04  0.145E-04
 12.858  0.162E-02  0.162E-02
 12.868  0.246E-01  0.246E-01
 12.878  0.517E-01  0.517E-01
 12.888  0.450E-01  0.450E-01
 12.898  0.114E+00  0.114E+00
 12.908  0.569E-01  0.569E-01
 12.918  0.635E-02  0.635E-02
 12.928  0.301E-01  0.301E-01
 12.938  0.488E-01  0.488E-01
 12.948  0.107E-01  0.107E-01
 12.958  0.415E-03  0.415E-03
 12.968  0.734E-02  0.734E-02
 12.978  0.769E-01  0.769E-01
 12.988  0.110E+00  0.110E+00
 12.998  0.218E-01  0.218E-01
 13.008  0.590E-03  0.590E-03
 13.018  0.329E-05  0.329E-05
 13.028  0.382E-03  0.382E-03
 13.038  0.181E-01  0.181E-01
 13.048  0.116E+00  0.116E+00
 13.058  0.106E+00  0.106E+00
 13.068  0.608E-01  0.608E-01
 13.078  0.942E-01  0.942E-01
 13.088  0.547E-01  0.547E-01
 13.098  0.698E-02  0.698E-02
 13.108  0.161E-01  0.161E-01
 13.118  0.757E-01  0.757E-01
 13.128  0.562E-01  0.562E-01
 13.138  0.629E-02  0.629E-02
 13.148  0.101E-03  0.101E-03
 13.158  0.227E-06  0.227E-06
 13.168  0.101E-07  0.101E-07
 13.178  0.899E-05  0.899E-05
 13.188  0.109E-02  0.109E-02
 13.198  0.178E-01  0.178E-01
 13.208  0.394E-01  0.394E-01
 13.218  0.120E-01  0.120E-01
 13.228  0.236E-02  0.236E-02
 13.238  0.403E-02  0.403E-02
 13.248  0.348E-01  0.348E-01
 13.258  0.164E+00  0.164E+00
 13.268  0.241E+00  0.241E+00
 13.278  0.699E-01  0.699E-01
 13.288  0.304E-02  0.304E-02
 13.298  0.463E-02  0.463E-02
 13.308  0.387E-01  0.387E-01
 13.318  0.707E-01  0.707E-01
 13.328  0.176E+00  0.176E+00
 13.338  0.268E+00  0.268E+00
 13.348  0.621E-01  0.621E-01
 13.358  0.196E-02  0.196E-02
 13.368  0.467E-03  0.467E-03
 13.378  0.146E-01  0.146E-01
 13.388  0.625E-01  0.625E-01
 13.398  0.364E-01  0.364E-01
 13.408  0.130E-01  0.130E-01
 13.418  0.132E+00  0.132E+00
 13.428  0.231E+00  0.231E+00
 13.438  0.549E-01  0.549E-01
 13.448  0.293E-02  0.293E-02
 13.458  0.181E-01  0.181E-01
 13.468  0.559E-01  0.559E-01
 13.478  0.598E-01  0.598E-01
 13.488  0.278E-01  0.278E-01
 13.498  0.466E-02  0.466E-02
 13.508  0.157E-02  0.157E-02
 13.518  0.767E-02  0.767E-02
 13.528  0.418E-01  0.418E-01
 13.538  0.123E+00  0.123E+00
 13.548  0.811E-01  0.811E-01
 13.558  0.817E-02  0.817E-02
 13.568  0.198E-01  0.198E-01
 13.578  0.908E-01  0.908E-01
 13.588  0.567E-01  0.567E-01
 13.598  0.480E-02  0.480E-02
 13.608  0.549E-04  0.549E-04
 13.618  0.850E-07  0.850E-07
 13.628  0.186E-06  0.186E-06
 13.638  0.966E-04  0.966E-04
 13.648  0.699E-02  0.699E-02
 13.658  0.721E-01  0.721E-01
 13.668  0.111E+00  0.111E+00
 13.678  0.262E-01  0.262E-01
 13.688  0.261E-02  0.261E-02
 13.698  0.322E-01  0.322E-01
 13.708  0.121E+00  0.121E+00
 13.718  0.728E-01  0.728E-01
 13.728  0.229E-01  0.229E-01
 13.738  0.233E-01  0.233E-01
 13.748  0.201E-01  0.201E-01
 13.758  0.650E-01  0.650E-01
 13.768  0.488E-01  0.488E-01
 13.778  0.785E-01  0.785E-01
 13.788  0.570E-01  0.570E-01
 13.798  0.580E-02  0.580E-02
 13.808  0.800E-04  0.800E-04
 13.818  0.147E-03  0.147E-03
 13.828  0.126E-01  0.126E-01
 13.838  0.151E+00  0.151E+00
 13.848  0.252E+00  0.252E+00
 13.858  0.599E-01  0.599E-01
 13.868  0.203E-02  0.203E-02
 13.878  0.101E-04  0.101E-04
 13.888  0.902E-04  0.902E-04
 13.898  0.602E-02  0.602E-02
 13.908  0.550E-01  0.550E-01
 13.918  0.703E-01  0.703E-01
 13.928  0.387E-01  0.387E-01
 13.938  0.715E-01  0.715E-01
 13.948  0.690E-01  0.690E-01
 13.958  0.675E-01  0.675E-01
 13.968  0.157E-01  0.157E-01
 13.978  0.191E-01  0.191E-01
 13.988  0.404E-01  0.404E-01
 13.998  0.130E+00  0.130E+00
 14.008  0.212E+00  0.212E+00
 14.018  0.141E+00  0.141E+00
 14.028  0.108E+00  0.108E+00
 14.038  0.175E-01  0.175E-01
 14.048  0.517E-03  0.517E-03
 14.058  0.226E-02  0.226E-02
 14.068  0.561E-02  0.561E-02
 14.078  0.188E-02  0.188E-02
 14.088  0.905E-04  0.905E-04
 14.098  0.646E-03  0.646E-03
 14.108  0.115E-01  0.115E-01
 14.118  0.293E-01  0.293E-01
 14.128  0.312E-01  0.312E-01
 14.138  0.452E-01  0.452E-01
 14.148  0.123E-01  0.123E-01
 14.158  0.459E-03  0.459E-03
 14.168  0.231E-05  0.231E-05
 14.178  0.157E-08  0.157E-08
 14.188  0.145E-12  0.145E-12
 14.198  0.535E-11  0.535E-11
 14.208  0.355E-07  0.355E-07
 14.218  0.318E-04  0.318E-04
 14.228  0.386E-02  0.386E-02
 14.238  0.633E-01  0.633E-01
 14.248  0.141E+00  0.141E+00
 14.258  0.423E-01  0.423E-01
 14.268  0.180E-02  0.180E-02
 14.278  0.363E-02  0.363E-02
 14.288  0.261E-01  0.261E-01
 14.298  0.367E-01  0.367E-01
 14.308  0.170E-01  0.170E-01
 14.318  0.204E-02  0.204E-02
 14.328  0.770E-02  0.770E-02
 14.338  0.625E-01  0.625E-01
 14.348  0.761E-01  0.761E-01
 14.358  0.634E-01  0.634E-01
 14.368  0.145E+00  0.145E+00
 14.378  0.744E-01  0.744E-01
 14.388  0.541E-02  0.541E-02
 14.398  0.534E-04  0.534E-04
 14.408  0.714E-07  0.714E-07
 14.418  0.129E-10  0.129E-10
 14.428  0.797E-14  0.797E-14
 14.438  0.910E-10  0.910E-10
 14.448  0.173E-06  0.173E-06
 14.458  0.642E-04  0.642E-04
 14.468  0.494E-02  0.494E-02
 14.478  0.654E-01  0.654E-01
 14.488  0.127E+00  0.127E+00
 14.498  0.342E-01  0.342E-01
 14.508  0.125E-02  0.125E-02
 14.518  0.757E-04  0.757E-04
 14.528  0.748E-02  0.748E-02
 14.538  0.109E+00  0.109E+00
 14.548  0.218E+00  0.218E+00
 14.558  0.588E-01  0.588E-01
 14.568  0.216E-02  0.216E-02
 14.578  0.107E-04  0.107E-04
 14.588  0.726E-08  0.726E-08
 14.598  0.304E-10  0.304E-10
 14.608  0.140E-06  0.140E-06
 14.618  0.896E-04  0.896E-04
 14.628  0.775E-02  0.775E-02
 14.638  0.906E-01  0.906E-01
 14.648  0.144E+00  0.144E+00
 14.658  0.387E-01  0.387E-01
 14.668  0.774E-01  0.774E-01
 14.678  0.105E+00  0.105E+00
 14.688  0.212E-01  0.212E-01
 14.698  0.173E-01  0.173E-01
 14.708  0.884E-01  0.884E-01
 14.718  0.654E-01  0.654E-01
 14.728  0.677E-02  0.677E-02
 14.738  0.976E-04  0.976E-04
 14.748  0.111E-04  0.111E-04
 14.758  0.157E-03  0.157E-03
 14.768  0.501E-03  0.501E-03
 14.778  0.838E-03  0.838E-03
 14.788  0.349E-03  0.349E-03
 14.798  0.211E-04  0.211E-04
 14.808  0.598E-05  0.598E-05
 14.818  0.139E-02  0.139E-02
 14.828  0.449E-01  0.449E-01
 14.838  0.197E+00  0.197E+00
 14.848  0.126E+00  0.126E+00
 14.858  0.773E-01  0.773E-01
 14.868  0.687E-01  0.687E-01
 14.878  0.338E-01  0.338E-01
 14.888  0.702E-01  0.702E-01
 14.898  0.525E-01  0.525E-01
 14.908  0.246E+00  0.246E+00
 14.918  0.425E+00  0.425E+00
 14.928  0.124E+00  0.124E+00
 14.938  0.587E-02  0.587E-02
 14.948  0.420E-04  0.420E-04
 14.958  0.431E-07  0.431E-07
 14.968  0.816E-08  0.816E-08
 14.978  0.447E-05  0.447E-05
 14.988  0.557E-03  0.557E-03
 14.998  0.215E-01  0.215E-01
 15.008  0.164E+00  0.164E+00
 15.018  0.184E+00  0.184E+00
 15.028  0.281E-01  0.281E-01
 15.038  0.583E-03  0.583E-03
 15.048  0.164E-05  0.164E-05
 15.058  0.621E-09  0.621E-09
 15.068  0.320E-13  0.320E-13
 15.078  0.257E-11  0.257E-11
 15.088  0.150E-07  0.150E-07
 15.098  0.122E-04  0.122E-04
 15.108  0.142E-02  0.142E-02
 15.118  0.237E-01  0.237E-01
 15.128  0.716E-01  0.716E-01
 15.138  0.103E+00  0.103E+00
 15.148  0.571E-01  0.571E-01
 15.158  0.499E-02  0.499E-02
 15.168  0.108E-03  0.108E-03
 15.178  0.536E-02  0.536E-02
 15.188  0.806E-01  0.806E-01
 15.198  0.164E+00  0.164E+00
 15.208  0.514E-01  0.514E-01
 15.218  0.369E-01  0.369E-01
 15.228  0.106E+00  0.106E+00
 15.238  0.121E+00  0.121E+00
 15.248  0.298E-01  0.298E-01
 15.258  0.122E-02  0.122E-02
 15.268  0.616E-04  0.616E-04
 15.278  0.555E-02  0.555E-02
 15.288  0.766E-01  0.766E-01
 15.298  0.143E+00  0.143E+00
 15.308  0.363E-01  0.363E-01
 15.318  0.124E-02  0.124E-02
 15.328  0.576E-05  0.576E-05
 15.338  0.108E-04  0.108E-04
 15.348  0.214E-02  0.214E-02
 15.358  0.600E-01  0.600E-01
 15.368  0.243E+00  0.243E+00
 15.378  0.145E+00  0.145E+00
 15.388  0.358E-01  0.358E-01
 15.398  0.126E+00  0.126E+00
 15.408  0.207E+00  0.207E+00
 15.418  0.636E-01  0.636E-01
 15.428  0.614E-01  0.614E-01
 15.438  0.958E-01  0.958E-01
 15.448  0.342E-01  0.342E-01
 15.458  0.602E-01  0.602E-01
 15.468  0.375E-01  0.375E-01
 15.478  0.352E-02  0.352E-02
 15.488  0.656E-04  0.656E-04
 15.498  0.327E-06  0.327E-06
 15.508  0.136E-05  0.136E-05
 15.518  0.259E-03  0.259E-03
 15.528  0.666E-02  0.666E-02
 15.538  0.232E-01  0.232E-01
 15.548  0.120E-01  0.120E-01
 15.558  0.269E-01  0.269E-01
 15.568  0.926E-01  0.926E-01
 15.578  0.451E-01  0.451E-01
 15.588  0.320E-02  0.320E-02
 15.598  0.609E-02  0.609E-02
 15.608  0.709E-01  0.709E-01
 15.618  0.142E+00  0.142E+00
 15.628  0.422E-01  0.422E-01
 15.638  0.795E-02  0.795E-02
 15.648  0.402E-01  0.402E-01
 15.658  0.101E+00  0.101E+00
 15.668  0.153E+00  0.153E+00
 15.678  0.449E-01  0.449E-01
 15.688  0.282E-01  0.282E-01
 15.698  0.154E+00  0.154E+00
 15.708  0.188E+00  0.188E+00
 15.718  0.420E-01  0.420E-01
 15.728  0.814E-02  0.814E-02
 15.738  0.909E-03  0.909E-03
 15.748  0.152E-04  0.152E-04
 15.758  0.347E-07  0.347E-07
 15.768  0.107E-10  0.107E-10
 15.778  0.114E-09  0.114E-09
 15.788  0.332E-06  0.332E-06
 15.798  0.131E-03  0.131E-03
 15.808  0.695E-02  0.695E-02
 15.818  0.501E-01  0.501E-01
 15.828  0.489E-01  0.489E-01
 15.838  0.646E-02  0.646E-02
 15.848  0.157E-03  0.157E-03
 15.858  0.310E-02  0.310E-02
 15.868  0.309E-01  0.309E-01
 15.878  0.418E-01  0.418E-01
 15.888  0.766E-02  0.766E-02
 15.898  0.477E-03  0.477E-03
 15.908  0.145E-01  0.145E-01
 15.918  0.987E-01  0.987E-01
 15.928  0.910E-01  0.910E-01
 15.938  0.114E-01  0.114E-01
 15.948  0.192E-03  0.192E-03
 15.958  0.439E-06  0.439E-06
 15.968  0.136E-09  0.136E-09
 15.978  0.192E-13  0.192E-13
 15.988  0.411E-13  0.411E-13
 15.998  0.576E-11  0.576E-11
 16.008  0.122E-09  0.122E-09
 16.018  0.327E-07  0.327E-07
 16.028  0.189E-04  0.189E-04
 16.038  0.148E-02  0.148E-02
 16.048  0.158E-01  0.158E-01
 16.058  0.231E-01  0.231E-01
 16.068  0.139E-01  0.139E-01
 16.078  0.594E-01  0.594E-01
 16.088  0.133E+00  0.133E+00
 16.098  0.789E-01  0.789E-01
 16.108  0.106E-01  0.106E-01
 16.118  0.138E-01  0.138E-01
 16.128  0.985E-01  0.985E-01
 16.138  0.994E-01  0.994E-01
 16.148  0.245E-01  0.245E-01
 16.158  0.331E-01  0.331E-01
 16.168  0.118E+00  0.118E+00
 16.178  0.857E-01  0.857E-01
 16.188  0.855E-02  0.855E-02
 16.198  0.115E-03  0.115E-03
 16.208  0.225E-06  0.225E-06
 16.218  0.132E-04  0.132E-04
 16.228  0.170E-02  0.170E-02
 16.238  0.296E-01  0.296E-01
 16.248  0.698E-01  0.698E-01
 16.258  0.223E-01  0.223E-01
 16.268  0.961E-03  0.961E-03
 16.278  0.561E-05  0.561E-05
 16.288  0.462E-08  0.462E-08
 16.298  0.532E-06  0.532E-06
 16.308  0.220E-03  0.220E-03
 16.318  0.134E-01  0.134E-01
 16.328  0.126E+00  0.126E+00
 16.338  0.191E+00  0.191E+00
 16.348  0.466E-01  0.466E-01
 16.358  0.622E-02  0.622E-02
 16.368  0.757E-01  0.757E-01
 16.378  0.172E+00  0.172E+00
 16.388  0.529E-01  0.529E-01
 16.398  0.220E-02  0.220E-02
 16.408  0.956E-04  0.956E-04
 16.418  0.568E-02  0.568E-02
 16.428  0.524E-01  0.524E-01
 16.438  0.654E-01  0.654E-01
 16.448  0.111E-01  0.111E-01
 16.458  0.253E-03  0.253E-03
 16.468  0.104E-04  0.104E-04
 16.478  0.183E-02  0.183E-02
 16.488  0.512E-01  0.512E-01
 16.498  0.215E+00  0.215E+00
 16.508  0.141E+00  0.141E+00
 16.518  0.154E-01  0.154E-01
 16.528  0.278E-03  0.278E-03
 16.538  0.165E-04  0.165E-04
 16.548  0.280E-02  0.280E-02
 16.558  0.676E-01  0.676E-01
 16.568  0.231E+00  0.231E+00
 16.578  0.235E+00  0.235E+00
 16.588  0.276E+00  0.276E+00
 16.598  0.260E+00  0.260E+00
 16.608  0.295E+00  0.295E+00
 16.618  0.149E+00  0.149E+00
 16.628  0.875E-01  0.875E-01
 16.638  0.198E+00  0.198E+00
 16.648  0.123E+00  0.123E+00
 16.658  0.649E-01  0.649E-01
 16.668  0.138E+00  0.138E+00
 16.678  0.390E+00  0.390E+00
 16.688  0.207E+00  0.207E+00
 16.698  0.223E-01  0.223E-01
 16.708  0.850E-01  0.850E-01
 16.718  0.234E+00  0.234E+00
 16.728  0.878E-01  0.878E-01
 16.738  0.445E-02  0.445E-02
 16.748  0.305E-04  0.305E-04
 16.758  0.283E-07  0.283E-07
 16.768  0.696E-11  0.696E-11
 16.778  0.194E-07  0.194E-07
 16.788  0.181E-04  0.181E-04
 16.798  0.230E-02  0.230E-02
 16.808  0.397E-01  0.397E-01
 16.818  0.953E-01  0.953E-01
 16.828  0.824E-01  0.824E-01
 16.838  0.160E+00  0.160E+00
 16.848  0.673E-01  0.673E-01
 16.858  0.101E-01  0.101E-01
 16.868  0.228E-01  0.228E-01
 16.878  0.118E-01  0.118E-01
 16.888  0.141E-01  0.141E-01
 16.898  0.109E+00  0.109E+00
 16.908  0.127E+00  0.127E+00
 16.918  0.720E-01  0.720E-01
 16.928  0.561E-01  0.561E-01
 16.938  0.777E-02  0.777E-02
 16.948  0.148E-03  0.148E-03
 16.958  0.429E-03  0.429E-03
 16.968  0.149E-01  0.149E-01
 16.978  0.700E-01  0.700E-01
 16.988  0.446E-01  0.446E-01
 16.998  0.738E-02  0.738E-02
 17.008  0.428E-01  0.428E-01
 17.018  0.731E-01  0.731E-01
 17.028  0.688E-01  0.688E-01
 17.038  0.125E+00  0.125E+00
 17.048  0.886E-01  0.886E-01
 17.058  0.134E+00  0.134E+00
 17.068  0.821E-01  0.821E-01
 17.078  0.804E-01  0.804E-01
 17.088  0.381E-01  0.381E-01
 17.098  0.311E-01  0.311E-01
 17.108  0.501E-01  0.501E-01
 17.118  0.239E-01  0.239E-01
 17.128  0.556E-01  0.556E-01
 17.138  0.853E-01  0.853E-01
 17.148  0.141E+00  0.141E+00
 17.158  0.194E+00  0.194E+00
 17.168  0.655E-01  0.655E-01
 17.178  0.114E-01  0.114E-01
 17.188  0.705E-01  0.705E-01
 17.198  0.826E-01  0.826E-01
 17.208  0.131E-01  0.131E-01
 17.218  0.315E-03  0.315E-03
 17.228  0.345E-02  0.345E-02
 17.238  0.476E-01  0.476E-01
 17.248  0.901E-01  0.901E-01
 17.258  0.432E-01  0.432E-01
 17.268  0.453E-01  0.453E-01
 17.278  0.238E-01  0.238E-01
 17.288  0.701E-01  0.701E-01
 17.298  0.596E-01  0.596E-01
 17.308  0.721E-02  0.721E-02
 17.318  0.106E-01  0.106E-01
 17.328  0.492E-01  0.492E-01
 17.338  0.312E-01  0.312E-01
 17.348  0.268E-02  0.268E-02
 17.358  0.311E-04  0.311E-04
 17.368  0.489E-07  0.489E-07
 17.378  0.104E-10  0.104E-10
 17.388  0.299E-15  0.299E-15
 17.398  0.392E-15  0.392E-15
 17.408  0.118E-10  0.118E-10
 17.418  0.483E-07  0.483E-07
 17.428  0.266E-04  0.266E-04
 17.438  0.199E-02  0.199E-02
 17.448  0.201E-01  0.201E-01
 17.458  0.276E-01  0.276E-01
 17.468  0.511E-02  0.511E-02
 17.478  0.128E-03  0.128E-03
 17.488  0.524E-04  0.524E-04
 17.498  0.282E-02  0.282E-02
 17.508  0.207E-01  0.207E-01
 17.518  0.205E-01  0.205E-01
 17.528  0.275E-02  0.275E-02
 17.538  0.501E-04  0.501E-04
 17.548  0.123E-06  0.123E-06
 17.558  0.410E-10  0.410E-10
 17.568  0.117E-09  0.117E-09
 17.578  0.159E-06  0.159E-06
 17.588  0.294E-04  0.294E-04
 17.598  0.734E-03  0.734E-03
 17.608  0.248E-02  0.248E-02
 17.618  0.146E-02  0.146E-02
 17.628  0.124E-01  0.124E-01
 17.638  0.627E-01  0.627E-01
 17.648  0.433E-01  0.433E-01
 17.658  0.404E-02  0.404E-02
 17.668  0.511E-04  0.511E-04
 17.678  0.115E-06  0.115E-06
 17.688  0.211E-04  0.211E-04
 17.698  0.218E-02  0.218E-02
 17.708  0.304E-01  0.304E-01
 17.718  0.576E-01  0.576E-01
 17.728  0.181E-01  0.181E-01
 17.738  0.212E-01  0.212E-01
 17.748  0.170E-01  0.170E-01
 17.758  0.478E-02  0.478E-02
 17.768  0.294E-01  0.294E-01
 17.778  0.421E-01  0.421E-01
 17.788  0.443E-01  0.443E-01
 17.798  0.988E-01  0.988E-01
 17.808  0.422E-01  0.422E-01
 17.818  0.354E-02  0.354E-02
 17.828  0.348E-03  0.348E-03
 17.838  0.661E-02  0.661E-02
 17.848  0.206E-01  0.206E-01
 17.858  0.869E-02  0.869E-02
 17.868  0.732E-03  0.732E-03
 17.878  0.111E-01  0.111E-01
 17.888  0.697E-01  0.697E-01
 17.898  0.596E-01  0.596E-01
 17.908  0.112E-01  0.112E-01
 17.918  0.680E-01  0.680E-01
 17.928  0.190E+00  0.190E+00
 17.938  0.138E+00  0.138E+00
 17.948  0.264E-01  0.264E-01
 17.958  0.886E-03  0.886E-03
 17.968  0.429E-05  0.429E-05
 17.978  0.289E-08  0.289E-08
 17.988  0.156E-06  0.156E-06
 17.998  0.797E-04  0.797E-04
 18.008  0.552E-02  0.552E-02
 18.018  0.517E-01  0.517E-01
 18.028  0.656E-01  0.656E-01
 18.038  0.117E-01  0.117E-01
 18.048  0.212E-01  0.212E-01
 18.058  0.130E+00  0.130E+00
 18.068  0.111E+00  0.111E+00
 18.078  0.132E-01  0.132E-01
 18.088  0.217E-03  0.217E-03
 18.098  0.754E-06  0.754E-06
 18.108  0.122E-03  0.122E-03
 18.118  0.770E-02  0.770E-02
 18.128  0.660E-01  0.660E-01
 18.138  0.765E-01  0.765E-01
 18.148  0.120E-01  0.120E-01
 18.158  0.255E-03  0.255E-03
 18.168  0.734E-06  0.734E-06
 18.178  0.287E-09  0.287E-09
 18.188  0.142E-07  0.142E-07
 18.198  0.150E-04  0.150E-04
 18.208  0.215E-02  0.215E-02
 18.218  0.416E-01  0.416E-01
 18.228  0.109E+00  0.109E+00
 18.238  0.387E-01  0.387E-01
 18.248  0.186E-02  0.186E-02
 18.258  0.121E-04  0.121E-04
 18.268  0.106E-07  0.106E-07
 18.278  0.126E-11  0.126E-11
 18.288  0.204E-16  0.204E-16
 18.298  0.000E+00  0.000E+00
 18.308  0.000E+00  0.000E+00
 18.318  0.000E+00  0.000E+00
 18.328  0.266E-17  0.266E-17
 18.338  0.197E-12  0.197E-12
 18.348  0.198E-08  0.198E-08
 18.358  0.270E-05  0.270E-05
 18.368  0.496E-03  0.496E-03
 18.378  0.124E-01  0.124E-01
 18.388  0.417E-01  0.417E-01
 18.398  0.200E-01  0.200E-01
 18.408  0.250E-01  0.250E-01
 18.418  0.765E-01  0.765E-01
 18.428  0.335E-01  0.335E-01
 18.438  0.643E-02  0.643E-02
 18.448  0.134E-01  0.134E-01
 18.458  0.542E-02  0.542E-02
 18.468  0.297E-03  0.297E-03
 18.478  0.221E-05  0.221E-05
 18.488  0.222E-08  0.222E-08
 18.498  0.322E-12  0.322E-12
 18.508  0.180E-09  0.180E-09
 18.518  0.211E-06  0.211E-06
 18.528  0.337E-04  0.337E-04
 18.538  0.725E-03  0.725E-03
 18.548  0.212E-02  0.212E-02
 18.558  0.835E-03  0.835E-03
 18.568  0.446E-04  0.446E-04
 18.578  0.322E-06  0.322E-06
 18.588  0.315E-09  0.315E-09
 18.598  0.417E-13  0.417E-13
 18.608  0.748E-18  0.748E-18
 18.618  0.249E-19  0.249E-19
 18.628  0.107E-15  0.107E-15
 18.638  0.171E-11  0.171E-11
 18.648  0.956E-08  0.956E-08
 18.658  0.735E-05  0.735E-05
 18.668  0.767E-03  0.767E-03
 18.678  0.113E-01  0.113E-01
 18.688  0.318E-01  0.318E-01
 18.698  0.358E-01  0.358E-01
 18.708  0.113E-01  0.113E-01
 18.718  0.551E-03  0.551E-03
 18.728  0.368E-05  0.368E-05
 18.738  0.332E-08  0.332E-08
 18.748  0.407E-12  0.407E-12
 18.758  0.675E-17  0.675E-17
 18.768  0.000E+00  0.000E+00
 18.778  0.000E+00  0.000E+00
 18.788  0.000E+00  0.000E+00
 18.798  0.000E+00  0.000E+00
 18.808  0.000E+00  0.000E+00
 18.818  0.000E+00  0.000E+00
 18.828  0.000E+00  0.000E+00
 18.838  0.000E+00  0.000E+00
 18.848  0.000E+00  0.000E+00
 18.858  0.000E+00  0.000E+00
 18.868  0.000E+00  0.000E+00
 18.878  0.943E-19  0.943E-19
 18.888  0.120E-13  0.120E-13
 18.898  0.206E-09  0.206E-09
 18.908  0.479E-06  0.479E-06
 18.918  0.151E-03  0.151E-03
 18.928  0.643E-02  0.643E-02
 18.938  0.371E-01  0.371E-01
 18.948  0.289E-01  0.289E-01
 18.958  0.306E-02  0.306E-02
 18.968  0.437E-04  0.437E-04
 18.978  0.846E-07  0.846E-07
 18.988  0.221E-10  0.221E-10
 18.998  0.785E-15  0.785E-15
 19.008  0.000E+00  0.000E+00
 19.018  0.000E+00  0.000E+00
 19.028  0.000E+00  0.000E+00
 19.038  0.000E+00  0.000E+00
 19.048  0.000E+00  0.000E+00
 19.058  0.000E+00  0.000E+00
 19.068  0.000E+00  0.000E+00
 19.078  0.000E+00  0.000E+00
 19.088  0.000E+00  0.000E+00
 19.098  0.000E+00  0.000E+00
 19.108  0.000E+00  0.000E+00
 19.118  0.355E-15  0.355E-15
 19.128  0.785E-11  0.785E-11
 19.138  0.235E-07  0.235E-07
 19.148  0.952E-05  0.952E-05
 19.158  0.522E-03  0.522E-03
 19.168  0.387E-02  0.387E-02
 19.178  0.389E-02  0.389E-02
 19.188  0.529E-03  0.529E-03
 19.198  0.972E-05  0.972E-05
 19.208  0.242E-07  0.242E-07
