# E (eV)  dos(E)    pdos(E)
 -6.292  0.806E-05  0.803E-05
 -6.282  0.120E-02  0.119E-02
 -6.272  0.240E-01  0.239E-01
 -6.262  0.653E-01  0.651E-01
 -6.252  0.240E-01  0.239E-01
 -6.242  0.120E-02  0.119E-02
 -6.232  0.806E-05  0.803E-05
 -6.222  0.875E-08  0.872E-08
 -6.212  0.372E-05  0.371E-05
 -6.202  0.134E-02  0.133E-02
 -6.192  0.652E-01  0.649E-01
 -6.182  0.429E+00  0.428E+00
 -6.172  0.385E+00  0.384E+00
 -6.162  0.123E+00  0.123E+00
 -6.152  0.364E+00  0.362E+00
 -6.142  0.232E+00  0.231E+00
 -6.132  0.201E-01  0.200E-01
 -6.122  0.235E-03  0.234E-03
 -6.112  0.372E-06  0.370E-06
 -6.102  0.797E-10  0.794E-10
 -6.092  0.340E-12  0.339E-12
 -6.082  0.536E-08  0.534E-08
 -6.072  0.115E-04  0.115E-04
 -6.062  0.334E-02  0.333E-02
 -6.052  0.132E+00  0.131E+00
 -6.042  0.700E+00  0.697E+00
 -6.032  0.504E+00  0.502E+00
 -6.022  0.492E-01  0.490E-01
 -6.012  0.648E-03  0.646E-03
 -6.002  0.116E-05  0.115E-05
 -5.992  0.182E-05  0.181E-05
 -5.982  0.109E-02  0.108E-02
 -5.972  0.881E-01  0.877E-01
 -5.962  0.965E+00  0.961E+00
 -5.952  0.143E+01  0.143E+01
 -5.942  0.377E+00  0.376E+00
 -5.932  0.478E+00  0.477E+00
 -5.922  0.330E+00  0.329E+00
 -5.912  0.314E-01  0.312E-01
 -5.902  0.403E-03  0.401E-03
 -5.892  0.701E-06  0.698E-06
 -5.882  0.165E-09  0.164E-09
 -5.872  0.966E-14  0.962E-14
 -5.862  0.136E-09  0.135E-09
 -5.852  0.565E-06  0.562E-06
 -5.842  0.318E-03  0.317E-03
 -5.832  0.243E-01  0.242E-01
 -5.822  0.251E+00  0.250E+00
 -5.812  0.351E+00  0.349E+00
 -5.802  0.663E-01  0.661E-01
 -5.792  0.170E-02  0.169E-02
 -5.782  0.589E-05  0.586E-05
 -5.772  0.106E-04  0.106E-04
 -5.762  0.388E-02  0.386E-02
 -5.752  0.192E+00  0.191E+00
 -5.742  0.128E+01  0.127E+01
 -5.732  0.116E+01  0.116E+01
 -5.722  0.358E+00  0.357E+00
 -5.712  0.133E+01  0.132E+01
 -5.702  0.110E+01  0.110E+01
 -5.692  0.124E+00  0.123E+00
 -5.682  0.188E-02  0.187E-02
 -5.672  0.387E-05  0.386E-05
 -5.662  0.108E-08  0.107E-08
 -5.652  0.395E-10  0.393E-10
 -5.642  0.284E-06  0.283E-06
 -5.632  0.276E-03  0.275E-03
 -5.622  0.363E-01  0.362E-01
 -5.612  0.648E+00  0.645E+00
 -5.602  0.156E+01  0.155E+01
 -5.592  0.510E+00  0.507E+00
 -5.582  0.225E-01  0.224E-01
 -5.572  0.135E-03  0.134E-03
 -5.562  0.220E-05  0.219E-05
 -5.552  0.889E-03  0.885E-03
 -5.542  0.518E-01  0.515E-01
 -5.532  0.467E+00  0.465E+00
 -5.522  0.130E+01  0.129E+01
 -5.512  0.154E+01  0.153E+01
 -5.502  0.339E+00  0.337E+00
 -5.492  0.104E-01  0.104E-01
 -5.482  0.435E-04  0.433E-04
 -5.472  0.246E-07  0.245E-07
 -5.462  0.188E-11  0.187E-11
 -5.452  0.249E-16  0.248E-16
 -5.442  0.574E-12  0.571E-12
 -5.432  0.824E-08  0.820E-08
 -5.422  0.160E-04  0.159E-04
 -5.412  0.421E-02  0.419E-02
 -5.402  0.150E+00  0.149E+00
 -5.392  0.722E+00  0.719E+00
 -5.382  0.471E+00  0.469E+00
 -5.372  0.415E-01  0.414E-01
 -5.362  0.496E-03  0.494E-03
 -5.352  0.813E-06  0.810E-06
 -5.342  0.290E-04  0.289E-04
 -5.332  0.967E-02  0.963E-02
 -5.322  0.436E+00  0.434E+00
 -5.312  0.267E+01  0.266E+01
 -5.302  0.258E+01  0.257E+01
 -5.292  0.176E+01  0.175E+01
 -5.282  0.834E+00  0.831E+00
 -5.272  0.301E+00  0.300E+00
 -5.262  0.357E+00  0.355E+00
 -5.252  0.707E-01  0.704E-01
 -5.242  0.190E-02  0.189E-02
 -5.232  0.692E-05  0.688E-05
 -5.222  0.340E-08  0.339E-08
 -5.212  0.309E-09  0.307E-09
 -5.202  0.145E-05  0.144E-05
 -5.192  0.921E-03  0.917E-03
 -5.182  0.793E-01  0.789E-01
 -5.172  0.923E+00  0.919E+00
 -5.162  0.145E+01  0.145E+01
 -5.152  0.310E+00  0.309E+00
 -5.142  0.927E-02  0.923E-02
 -5.132  0.398E-01  0.396E-01
 -5.122  0.676E+00  0.673E+00
 -5.112  0.156E+01  0.155E+01
 -5.102  0.485E+00  0.483E+00
 -5.092  0.246E-01  0.245E-01
 -5.082  0.201E+00  0.200E+00
 -5.072  0.130E+01  0.129E+01
 -5.062  0.114E+01  0.113E+01
 -5.052  0.135E+00  0.134E+00
 -5.042  0.216E-02  0.215E-02
 -5.032  0.433E-04  0.432E-04
 -5.022  0.679E-02  0.676E-02
 -5.012  0.161E+00  0.161E+00
 -5.002  0.519E+00  0.517E+00
 -4.992  0.226E+00  0.225E+00
 -4.982  0.133E-01  0.132E-01
 -4.972  0.106E-03  0.106E-03
 -4.962  0.114E-06  0.114E-06
 -4.952  0.785E-10  0.782E-10
 -4.942  0.406E-06  0.404E-06
 -4.932  0.360E-03  0.359E-03
 -4.922  0.433E-01  0.431E-01
 -4.912  0.704E+00  0.701E+00
 -4.902  0.155E+01  0.154E+01
 -4.892  0.467E+00  0.465E+00
 -4.882  0.301E+00  0.299E+00
 -4.872  0.221E+01  0.220E+01
 -4.862  0.259E+01  0.258E+01
 -4.852  0.456E+00  0.454E+00
 -4.842  0.119E-01  0.118E-01
 -4.832  0.443E-04  0.441E-04
 -4.822  0.139E-05  0.138E-05
 -4.812  0.106E-02  0.105E-02
 -4.802  0.111E+00  0.111E+00
 -4.792  0.158E+01  0.157E+01
 -4.782  0.304E+01  0.303E+01
 -4.772  0.792E+00  0.789E+00
 -4.762  0.333E-01  0.332E-01
 -4.752  0.234E+00  0.233E+00
 -4.742  0.136E+01  0.135E+01
 -4.732  0.107E+01  0.106E+01
 -4.722  0.113E+00  0.113E+00
 -4.712  0.166E-02  0.165E-02
 -4.702  0.938E-02  0.934E-02
 -4.692  0.428E+00  0.426E+00
 -4.682  0.265E+01  0.264E+01
 -4.672  0.222E+01  0.221E+01
 -4.662  0.251E+00  0.250E+00
 -4.652  0.384E-02  0.383E-02
 -4.642  0.797E-05  0.794E-05
 -4.632  0.224E-08  0.223E-08
 -4.622  0.850E-13  0.846E-13
 -4.612  0.158E-17  0.158E-17
 -4.602  0.227E-12  0.226E-12
 -4.592  0.441E-08  0.439E-08
 -4.582  0.116E-04  0.116E-04
 -4.572  0.413E-02  0.411E-02
 -4.562  0.199E+00  0.198E+00
 -4.552  0.129E+01  0.129E+01
 -4.542  0.114E+01  0.114E+01
 -4.532  0.245E+00  0.244E+00
 -4.522  0.112E+01  0.112E+01
 -4.512  0.175E+01  0.174E+01
 -4.502  0.469E+00  0.467E+00
 -4.492  0.240E-01  0.238E-01
 -4.482  0.217E-03  0.216E-03
 -4.472  0.234E-03  0.233E-03
 -4.462  0.222E-01  0.221E-01
 -4.452  0.286E+00  0.285E+00
 -4.442  0.515E+00  0.513E+00
 -4.432  0.568E+00  0.566E+00
 -4.422  0.155E+01  0.154E+01
 -4.412  0.725E+00  0.722E+00
 -4.402  0.253E+00  0.252E+00
 -4.392  0.766E+00  0.763E+00
 -4.382  0.382E+00  0.380E+00
 -4.372  0.259E-01  0.257E-01
 -4.362  0.185E-01  0.184E-01
 -4.352  0.621E+00  0.618E+00
 -4.342  0.292E+01  0.291E+01
 -4.332  0.265E+01  0.263E+01
 -4.322  0.320E+01  0.319E+01
 -4.312  0.159E+01  0.158E+01
 -4.302  0.112E+00  0.111E+00
 -4.292  0.107E-02  0.106E-02
 -4.282  0.138E-05  0.137E-05
 -4.272  0.135E-08  0.135E-08
 -4.262  0.464E-05  0.463E-05
 -4.252  0.265E-02  0.264E-02
 -4.242  0.211E+00  0.210E+00
 -4.232  0.242E+01  0.242E+01
 -4.222  0.433E+01  0.432E+01
 -4.212  0.130E+01  0.129E+01
 -4.202  0.659E-01  0.657E-01
 -4.192  0.112E-02  0.111E-02
 -4.182  0.596E-01  0.594E-01
 -4.172  0.822E+00  0.819E+00
 -4.162  0.162E+01  0.162E+01
 -4.152  0.638E+00  0.636E+00
 -4.142  0.961E-01  0.958E-01
 -4.132  0.160E+00  0.160E+00
 -4.122  0.214E+01  0.213E+01
 -4.112  0.452E+01  0.450E+01
 -4.102  0.145E+01  0.145E+01
 -4.092  0.686E-01  0.683E-01
 -4.082  0.459E-03  0.457E-03
 -4.072  0.426E-06  0.424E-06
 -4.062  0.215E-07  0.214E-07
 -4.052  0.391E-04  0.390E-04
 -4.042  0.968E-02  0.964E-02
 -4.032  0.324E+00  0.323E+00
 -4.022  0.147E+01  0.146E+01
 -4.012  0.102E+01  0.101E+01
 -4.002  0.116E+01  0.115E+01
 -3.992  0.134E+01  0.134E+01
 -3.982  0.225E+00  0.225E+00
 -3.972  0.512E-02  0.510E-02
 -3.962  0.557E-04  0.555E-04
 -3.952  0.982E-02  0.979E-02
 -3.942  0.327E+00  0.326E+00
 -3.932  0.147E+01  0.147E+01
 -3.922  0.899E+00  0.896E+00
 -3.912  0.242E+00  0.241E+00
 -3.902  0.123E+01  0.122E+01
 -3.892  0.123E+01  0.123E+01
 -3.882  0.826E+00  0.823E+00
 -3.872  0.295E+01  0.294E+01
 -3.862  0.177E+01  0.177E+01
 -3.852  0.157E+00  0.157E+00
 -3.842  0.378E+00  0.377E+00
 -3.832  0.151E+01  0.150E+01
 -3.822  0.819E+00  0.817E+00
 -3.812  0.130E+00  0.130E+00
 -3.802  0.128E+01  0.128E+01
 -3.792  0.340E+01  0.339E+01
 -3.782  0.264E+01  0.263E+01
 -3.772  0.233E+01  0.232E+01
 -3.762  0.125E+01  0.125E+01
 -3.752  0.142E+00  0.142E+00
 -3.742  0.233E-02  0.233E-02
 -3.732  0.522E-05  0.520E-05
 -3.722  0.169E-08  0.169E-08
 -3.712  0.758E-06  0.756E-06
 -3.702  0.685E-03  0.683E-03
 -3.692  0.838E-01  0.835E-01
 -3.682  0.139E+01  0.138E+01
 -3.672  0.311E+01  0.310E+01
 -3.662  0.941E+00  0.938E+00
 -3.652  0.386E-01  0.385E-01
 -3.642  0.214E-03  0.214E-03
 -3.632  0.144E-03  0.143E-03
 -3.622  0.294E-01  0.293E-01
 -3.612  0.814E+00  0.811E+00
 -3.602  0.305E+01  0.304E+01
 -3.592  0.155E+01  0.155E+01
 -3.582  0.123E+00  0.122E+00
 -3.572  0.213E+00  0.212E+00
 -3.562  0.374E+00  0.373E+00
 -3.552  0.895E-01  0.892E-01
 -3.542  0.290E-02  0.289E-02
 -3.532  0.238E-04  0.237E-04
 -3.522  0.487E-02  0.485E-02
 -3.512  0.290E+00  0.289E+00
 -3.502  0.233E+01  0.233E+01
 -3.492  0.254E+01  0.254E+01
 -3.482  0.376E+00  0.375E+00
 -3.472  0.145E-01  0.144E-01
 -3.462  0.269E+00  0.268E+00
 -3.452  0.141E+01  0.140E+01
 -3.442  0.998E+00  0.994E+00
 -3.432  0.957E-01  0.954E-01
 -3.422  0.124E-02  0.124E-02
 -3.412  0.219E-05  0.218E-05
 -3.402  0.520E-09  0.518E-09
 -3.392  0.891E-10  0.888E-10
 -3.382  0.625E-06  0.623E-06
 -3.372  0.593E-03  0.591E-03
 -3.362  0.762E-01  0.760E-01
 -3.352  0.133E+01  0.132E+01
 -3.342  0.312E+01  0.311E+01
 -3.332  0.100E+01  0.100E+01
 -3.322  0.396E+00  0.395E+00
 -3.312  0.150E+01  0.149E+01
 -3.302  0.124E+01  0.123E+01
 -3.292  0.348E+01  0.346E+01
 -3.282  0.480E+01  0.478E+01
 -3.272  0.109E+01  0.108E+01
 -3.262  0.394E-01  0.393E-01
 -3.252  0.219E-03  0.219E-03
 -3.242  0.179E-06  0.179E-06
 -3.232  0.208E-10  0.207E-10
 -3.222  0.333E-15  0.332E-15
 -3.212  0.000E+00  0.000E+00
 -3.202  0.000E+00  0.000E+00
 -3.192  0.000E+00  0.000E+00
 -3.182  0.000E+00  0.000E+00
 -3.172  0.000E+00  0.000E+00
 -3.162  0.000E+00  0.000E+00
 -3.152  0.000E+00  0.000E+00
 -3.142  0.000E+00  0.000E+00
 -3.132  0.000E+00  0.000E+00
 -3.122  0.000E+00  0.000E+00
 -3.112  0.390E-14  0.389E-14
 -3.102  0.156E-09  0.156E-09
 -3.092  0.846E-06  0.844E-06
 -3.082  0.621E-03  0.619E-03
 -3.072  0.616E-01  0.615E-01
 -3.062  0.831E+00  0.829E+00
 -3.052  0.168E+01  0.168E+01
 -3.042  0.162E+01  0.162E+01
 -3.032  0.120E+01  0.120E+01
 -3.022  0.200E+00  0.200E+00
 -3.012  0.741E+00  0.738E+00
 -3.002  0.154E+01  0.154E+01
 -2.992  0.435E+00  0.434E+00
 -2.982  0.166E-01  0.166E-01
 -2.972  0.861E-04  0.858E-04
 -2.962  0.233E-04  0.232E-04
 -2.952  0.826E-02  0.823E-02
 -2.942  0.397E+00  0.396E+00
 -2.932  0.259E+01  0.258E+01
 -2.922  0.228E+01  0.228E+01
 -2.912  0.272E+00  0.272E+00
 -2.902  0.440E-02  0.439E-02
 -2.892  0.961E-05  0.959E-05
 -2.882  0.319E-06  0.318E-06
 -2.872  0.356E-03  0.355E-03
 -2.862  0.543E-01  0.542E-01
 -2.852  0.112E+01  0.112E+01
 -2.842  0.313E+01  0.313E+01
 -2.832  0.119E+01  0.118E+01
 -2.822  0.121E+00  0.120E+00
 -2.812  0.819E+00  0.817E+00
 -2.802  0.151E+01  0.151E+01
 -2.792  0.377E+00  0.376E+00
 -2.782  0.127E-01  0.127E-01
 -2.772  0.582E-04  0.580E-04
 -2.762  0.360E-07  0.359E-07
 -2.752  0.301E-11  0.301E-11
 -2.742  0.342E-16  0.341E-16
 -2.732  0.000E+00  0.000E+00
 -2.722  0.000E+00  0.000E+00
 -2.712  0.000E+00  0.000E+00
 -2.702  0.000E+00  0.000E+00
 -2.692  0.000E+00  0.000E+00
 -2.682  0.000E+00  0.000E+00
 -2.672  0.000E+00  0.000E+00
 -2.662  0.763E-15  0.761E-15
 -2.652  0.359E-10  0.358E-10
 -2.642  0.228E-06  0.228E-06
 -2.632  0.197E-03  0.196E-03
 -2.622  0.229E-01  0.229E-01
 -2.612  0.362E+00  0.361E+00
 -2.602  0.772E+00  0.770E+00
 -2.592  0.223E+00  0.223E+00
 -2.582  0.873E-02  0.871E-02
 -2.572  0.462E-04  0.461E-04
 -2.562  0.331E-07  0.330E-07
 -2.552  0.321E-11  0.320E-11
 -2.542  0.421E-16  0.420E-16
 -2.532  0.000E+00  0.000E+00
 -2.522  0.000E+00  0.000E+00
 -2.512  0.102E-14  0.102E-14
 -2.502  0.405E-10  0.404E-10
 -2.492  0.218E-06  0.217E-06
 -2.482  0.159E-03  0.158E-03
 -2.472  0.156E-01  0.156E-01
 -2.462  0.208E+00  0.208E+00
 -2.452  0.376E+00  0.375E+00
 -2.442  0.142E+00  0.142E+00
 -2.432  0.760E+00  0.758E+00
 -2.422  0.153E+01  0.153E+01
 -2.412  0.421E+00  0.420E+00
 -2.402  0.156E-01  0.156E-01
 -2.392  0.125E-03  0.125E-03
 -2.382  0.109E-01  0.109E-01
 -2.372  0.347E+00  0.346E+00
 -2.362  0.149E+01  0.148E+01
 -2.352  0.865E+00  0.862E+00
 -2.342  0.116E+00  0.116E+00
 -2.332  0.500E+00  0.499E+00
 -2.322  0.704E+00  0.702E+00
 -2.312  0.134E+00  0.134E+00
 -2.302  0.347E-02  0.346E-02
 -2.292  0.121E-04  0.121E-04
 -2.282  0.573E-08  0.571E-08
 -2.272  0.366E-12  0.366E-12
 -2.262  0.914E-13  0.912E-13
 -2.252  0.185E-08  0.184E-08
 -2.242  0.505E-05  0.504E-05
 -2.232  0.187E-02  0.187E-02
 -2.222  0.938E-01  0.935E-01
 -2.212  0.636E+00  0.634E+00
 -2.202  0.584E+00  0.582E+00
 -2.192  0.725E-01  0.723E-01
 -2.182  0.122E-02  0.121E-02
 -2.172  0.277E-05  0.276E-05
 -2.162  0.853E-09  0.851E-09
 -2.152  0.355E-13  0.354E-13
 -2.142  0.000E+00  0.000E+00
 -2.132  0.000E+00  0.000E+00
 -2.122  0.000E+00  0.000E+00
 -2.112  0.000E+00  0.000E+00
 -2.102  0.000E+00  0.000E+00
 -2.092  0.000E+00  0.000E+00
 -2.082  0.000E+00  0.000E+00
 -2.072  0.000E+00  0.000E+00
 -2.062  0.000E+00  0.000E+00
 -2.052  0.000E+00  0.000E+00
 -2.042  0.000E+00  0.000E+00
 -2.032  0.000E+00  0.000E+00
 -2.022  0.000E+00  0.000E+00
 -2.012  0.000E+00  0.000E+00
 -2.002  0.000E+00  0.000E+00
 -1.992  0.142E-14  0.142E-14
 -1.982  0.678E-10  0.676E-10
 -1.972  0.436E-06  0.435E-06
 -1.962  0.380E-03  0.379E-03
 -1.952  0.449E-01  0.447E-01
 -1.942  0.716E+00  0.714E+00
 -1.932  0.155E+01  0.154E+01
 -1.922  0.452E+00  0.451E+00
 -1.912  0.179E-01  0.178E-01
 -1.902  0.958E-04  0.956E-04
 -1.892  0.853E-07  0.851E-07
 -1.882  0.374E-04  0.373E-04
 -1.872  0.123E-01  0.123E-01
 -1.862  0.587E+00  0.585E+00
 -1.852  0.453E+01  0.452E+01
 -1.842  0.667E+01  0.666E+01
 -1.832  0.199E+01  0.198E+01
 -1.822  0.104E+00  0.104E+00
 -1.812  0.823E-03  0.821E-03
 -1.802  0.922E-06  0.920E-06
 -1.792  0.153E-09  0.153E-09
 -1.782  0.103E-06  0.103E-06
 -1.772  0.129E-03  0.129E-03
 -1.762  0.219E-01  0.218E-01
 -1.752  0.502E+00  0.501E+00
 -1.742  0.156E+01  0.156E+01
 -1.732  0.656E+00  0.654E+00
 -1.722  0.373E-01  0.372E-01
 -1.712  0.287E-03  0.286E-03
 -1.702  0.299E-06  0.298E-06
 -1.692  0.421E-10  0.420E-10
 -1.682  0.496E-10  0.495E-10
 -1.672  0.340E-06  0.340E-06
 -1.662  0.316E-03  0.315E-03
 -1.652  0.397E-01  0.397E-01
 -1.642  0.676E+00  0.675E+00
 -1.632  0.156E+01  0.155E+01
 -1.622  0.485E+00  0.484E+00
 -1.612  0.205E-01  0.204E-01
 -1.602  0.117E-03  0.116E-03
 -1.592  0.901E-07  0.899E-07
 -1.582  0.942E-11  0.940E-11
 -1.572  0.158E-10  0.157E-10
 -1.562  0.136E-06  0.136E-06
 -1.552  0.159E-03  0.159E-03
 -1.542  0.252E-01  0.252E-01
 -1.532  0.540E+00  0.539E+00
 -1.522  0.158E+01  0.158E+01
 -1.512  0.114E+01  0.114E+01
 -1.502  0.290E+01  0.289E+01
 -1.492  0.236E+01  0.235E+01
 -1.482  0.593E+00  0.592E+00
 -1.472  0.786E+00  0.784E+00
 -1.462  0.372E+00  0.371E+00
 -1.452  0.174E+01  0.174E+01
 -1.442  0.479E+01  0.478E+01
 -1.432  0.377E+01  0.376E+01
 -1.422  0.242E+01  0.241E+01
 -1.412  0.972E+00  0.966E+00
 -1.402  0.164E+00  0.163E+00
 -1.392  0.962E+00  0.960E+00
 -1.382  0.156E+01  0.156E+01
 -1.372  0.213E+01  0.212E+01
 -1.362  0.431E+01  0.429E+01
 -1.352  0.190E+01  0.189E+01
 -1.342  0.165E+00  0.164E+00
 -1.332  0.298E-02  0.297E-02
 -1.322  0.586E-01  0.585E-01
 -1.312  0.809E+00  0.808E+00
 -1.302  0.151E+01  0.151E+01
 -1.292  0.383E+00  0.382E+00
 -1.282  0.365E-01  0.363E-01
 -1.272  0.526E+00  0.523E+00
 -1.262  0.183E+01  0.182E+01
 -1.252  0.204E+01  0.203E+01
 -1.242  0.105E+01  0.105E+01
 -1.232  0.291E+00  0.290E+00
 -1.222  0.139E+01  0.139E+01
 -1.212  0.205E+01  0.204E+01
 -1.202  0.309E+01  0.308E+01
 -1.192  0.209E+01  0.208E+01
 -1.182  0.210E+00  0.209E+00
 -1.172  0.339E-02  0.338E-02
 -1.162  0.684E-01  0.683E-01
 -1.152  0.126E+01  0.125E+01
 -1.142  0.313E+01  0.312E+01
 -1.132  0.105E+01  0.105E+01
 -1.122  0.480E-01  0.479E-01
 -1.112  0.750E-03  0.748E-03
 -1.102  0.503E-01  0.502E-01
 -1.092  0.755E+00  0.753E+00
 -1.082  0.153E+01  0.153E+01
 -1.072  0.431E+00  0.430E+00
 -1.062  0.204E+00  0.203E+00
 -1.052  0.522E+00  0.519E+00
 -1.042  0.196E+00  0.195E+00
 -1.032  0.155E-01  0.154E-01
 -1.022  0.235E+00  0.235E+00
 -1.012  0.137E+01  0.136E+01
 -1.002  0.145E+01  0.145E+01
 -0.992  0.268E+01  0.267E+01
 -0.982  0.232E+01  0.231E+01
 -0.972  0.670E+00  0.667E+00
 -0.962  0.152E+01  0.152E+01
 -0.952  0.799E+00  0.797E+00
 -0.942  0.569E-01  0.568E-01
 -0.932  0.548E-03  0.547E-03
 -0.922  0.715E-06  0.714E-06
 -0.912  0.126E-09  0.126E-09
 -0.902  0.302E-14  0.301E-14
 -0.892  0.000E+00  0.000E+00
 -0.882  0.000E+00  0.000E+00
 -0.872  0.000E+00  0.000E+00
 -0.862  0.107E-16  0.107E-16
 -0.852  0.127E-11  0.127E-11
 -0.842  0.204E-07  0.203E-07
 -0.832  0.442E-04  0.442E-04
 -0.822  0.130E-01  0.130E-01
 -0.812  0.518E+00  0.517E+00
 -0.802  0.279E+01  0.278E+01
 -0.792  0.203E+01  0.203E+01
 -0.782  0.201E+00  0.200E+00
 -0.772  0.272E-02  0.272E-02
 -0.762  0.127E-01  0.127E-01
 -0.752  0.516E+00  0.514E+00
 -0.742  0.302E+01  0.301E+01
 -0.732  0.341E+01  0.340E+01
 -0.722  0.126E+01  0.125E+01
 -0.712  0.112E+00  0.112E+00
 -0.702  0.179E-01  0.178E-01
 -0.692  0.431E+00  0.430E+00
 -0.682  0.154E+01  0.153E+01
 -0.672  0.743E+00  0.740E+00
 -0.662  0.485E-01  0.484E-01
 -0.652  0.429E-03  0.428E-03
 -0.642  0.536E-06  0.534E-06
 -0.632  0.395E-04  0.394E-04
 -0.622  0.974E-02  0.973E-02
 -0.612  0.325E+00  0.325E+00
 -0.602  0.147E+01  0.147E+01
 -0.592  0.898E+00  0.897E+00
 -0.582  0.743E-01  0.742E-01
 -0.572  0.832E-03  0.831E-03
 -0.562  0.126E-05  0.126E-05
 -0.552  0.259E-09  0.258E-09
 -0.542  0.718E-14  0.717E-14
 -0.532  0.000E+00  0.000E+00
 -0.522  0.000E+00  0.000E+00
 -0.512  0.000E+00  0.000E+00
 -0.502  0.112E-15  0.112E-15
 -0.492  0.814E-11  0.813E-11
 -0.482  0.802E-07  0.800E-07
 -0.472  0.107E-03  0.107E-03
 -0.462  0.193E-01  0.192E-01
 -0.452  0.470E+00  0.469E+00
 -0.442  0.156E+01  0.156E+01
 -0.432  0.102E+01  0.102E+01
 -0.422  0.247E+01  0.246E+01
 -0.412  0.246E+01  0.245E+01
 -0.402  0.372E+00  0.371E+00
 -0.392  0.863E+00  0.860E+00
 -0.382  0.301E+01  0.300E+01
 -0.372  0.154E+01  0.153E+01
 -0.362  0.114E+00  0.113E+00
 -0.352  0.120E-02  0.120E-02
 -0.342  0.179E-05  0.179E-05
 -0.332  0.373E-09  0.371E-09
 -0.322  0.107E-13  0.107E-13
 -0.312  0.131E-11  0.131E-11
 -0.302  0.162E-07  0.161E-07
 -0.292  0.274E-04  0.273E-04
 -0.282  0.654E-02  0.653E-02
 -0.272  0.239E+00  0.239E+00
 -0.262  0.155E+01  0.155E+01
 -0.252  0.194E+01  0.193E+01
 -0.242  0.421E+00  0.420E+00
 -0.232  0.138E-01  0.138E-01
 -0.222  0.639E-04  0.638E-04
 -0.212  0.404E-07  0.403E-07
 -0.202  0.347E-11  0.347E-11
 -0.192  0.404E-16  0.403E-16
 -0.182  0.000E+00  0.000E+00
 -0.172  0.000E+00  0.000E+00
 -0.162  0.000E+00  0.000E+00
 -0.152  0.000E+00  0.000E+00
 -0.142  0.000E+00  0.000E+00
 -0.132  0.000E+00  0.000E+00
 -0.122  0.000E+00  0.000E+00
 -0.112  0.000E+00  0.000E+00
 -0.102  0.000E+00  0.000E+00
 -0.092  0.365E-15  0.365E-15
 -0.082  0.219E-10  0.218E-10
 -0.072  0.177E-06  0.177E-06
 -0.062  0.194E-03  0.194E-03
 -0.052  0.288E-01  0.287E-01
 -0.042  0.583E+00  0.582E+00
 -0.032  0.172E+01  0.172E+01
 -0.022  0.113E+01  0.113E+01
 -0.012  0.123E+01  0.122E+01
 -0.002  0.313E+01  0.312E+01
  0.008  0.136E+01  0.136E+01
  0.018  0.809E-01  0.806E-01
  0.028  0.649E-03  0.647E-03
  0.038  0.705E-06  0.703E-06
  0.048  0.104E-09  0.103E-09
  0.058  0.206E-14  0.206E-14
  0.068  0.437E-14  0.436E-14
  0.078  0.135E-09  0.134E-09
  0.088  0.562E-06  0.561E-06
  0.098  0.317E-03  0.317E-03
  0.108  0.242E-01  0.242E-01
  0.118  0.251E+00  0.250E+00
  0.128  0.351E+00  0.351E+00
  0.138  0.665E-01  0.664E-01
  0.148  0.170E-02  0.170E-02
  0.158  0.591E-05  0.591E-05
  0.168  0.966E-07  0.964E-07
  0.178  0.142E-03  0.142E-03
  0.188  0.292E-01  0.292E-01
  0.198  0.812E+00  0.810E+00
  0.208  0.305E+01  0.305E+01
  0.218  0.155E+01  0.155E+01
  0.228  0.107E+00  0.107E+00
  0.238  0.997E-03  0.996E-03
  0.248  0.126E-05  0.126E-05
  0.258  0.215E-09  0.214E-09
  0.268  0.496E-14  0.495E-14
  0.278  0.000E+00  0.000E+00
  0.288  0.000E+00  0.000E+00
  0.298  0.477E-14  0.476E-14
  0.308  0.185E-09  0.184E-09
  0.318  0.966E-06  0.964E-06
  0.328  0.684E-03  0.683E-03
  0.338  0.656E-01  0.655E-01
  0.348  0.851E+00  0.849E+00
  0.358  0.149E+01  0.149E+01
  0.368  0.355E+00  0.354E+00
  0.378  0.482E-01  0.481E-01
  0.388  0.652E+00  0.650E+00
  0.398  0.156E+01  0.156E+01
  0.408  0.506E+00  0.504E+00
  0.418  0.222E-01  0.221E-01
  0.428  0.132E-03  0.131E-03
  0.438  0.646E-06  0.645E-06
  0.448  0.446E-03  0.445E-03
  0.458  0.497E-01  0.497E-01
  0.468  0.751E+00  0.750E+00
  0.478  0.154E+01  0.153E+01
  0.488  0.425E+00  0.424E+00
  0.498  0.159E-01  0.159E-01
  0.508  0.806E-04  0.805E-04
  0.518  0.553E-07  0.552E-07
  0.528  0.513E-11  0.512E-11
  0.538  0.644E-16  0.643E-16
  0.548  0.000E+00  0.000E+00
  0.558  0.000E+00  0.000E+00
  0.568  0.000E+00  0.000E+00
  0.578  0.000E+00  0.000E+00
  0.588  0.000E+00  0.000E+00
  0.598  0.000E+00  0.000E+00
  0.608  0.000E+00  0.000E+00
  0.618  0.274E-15  0.274E-15
  0.628  0.172E-10  0.172E-10
  0.638  0.146E-06  0.146E-06
  0.648  0.168E-03  0.168E-03
  0.658  0.261E-01  0.261E-01
  0.668  0.550E+00  0.549E+00
  0.678  0.157E+01  0.156E+01
  0.688  0.604E+00  0.603E+00
  0.698  0.315E-01  0.315E-01
  0.708  0.242E-03  0.242E-03
  0.718  0.600E-02  0.599E-02
  0.728  0.247E+00  0.247E+00
  0.738  0.138E+01  0.137E+01
  0.748  0.104E+01  0.104E+01
  0.758  0.106E+00  0.106E+00
  0.768  0.147E-02  0.146E-02
  0.778  0.274E-05  0.273E-05
  0.788  0.225E-05  0.224E-05
  0.798  0.127E-02  0.127E-02
  0.808  0.970E-01  0.967E-01
  0.818  0.100E+01  0.100E+01
  0.828  0.140E+01  0.140E+01
  0.838  0.266E+00  0.265E+00
  0.848  0.681E-02  0.679E-02
  0.858  0.236E-04  0.236E-04
  0.868  0.111E-07  0.111E-07
  0.878  0.705E-12  0.703E-12
  0.888  0.606E-17  0.604E-17
  0.898  0.000E+00  0.000E+00
  0.908  0.000E+00  0.000E+00
  0.918  0.000E+00  0.000E+00
  0.928  0.000E+00  0.000E+00
  0.938  0.000E+00  0.000E+00
  0.948  0.000E+00  0.000E+00
  0.958  0.000E+00  0.000E+00
  0.968  0.000E+00  0.000E+00
  0.978  0.000E+00  0.000E+00
  0.988  0.000E+00  0.000E+00
  0.998  0.471E-16  0.468E-16
  1.008  0.352E-11  0.351E-11
  1.018  0.357E-07  0.355E-07
  1.028  0.489E-04  0.487E-04
  1.038  0.907E-02  0.903E-02
  1.048  0.228E+00  0.227E+00
  1.058  0.774E+00  0.770E+00
  1.068  0.356E+00  0.354E+00
  1.078  0.221E-01  0.220E-01
  1.088  0.187E-03  0.186E-03
  1.098  0.213E-06  0.212E-06
  1.108  0.328E-10  0.326E-10
  1.118  0.697E-11  0.696E-11
  1.128  0.707E-07  0.706E-07
  1.138  0.972E-04  0.970E-04
  1.148  0.181E-01  0.180E-01
  1.158  0.457E+00  0.456E+00
  1.168  0.174E+01  0.174E+01
  1.178  0.272E+01  0.271E+01
  1.188  0.301E+01  0.301E+01
  1.198  0.251E+01  0.250E+01
  1.208  0.406E+01  0.404E+01
  1.218  0.193E+01  0.192E+01
  1.228  0.467E+00  0.465E+00
  1.238  0.210E+01  0.209E+01
  1.248  0.268E+01  0.267E+01
  1.258  0.519E+00  0.517E+00
  1.268  0.173E+00  0.173E+00
  1.278  0.115E+01  0.114E+01
  1.288  0.184E+01  0.183E+01
  1.298  0.533E+00  0.531E+00
  1.308  0.230E-01  0.229E-01
  1.318  0.137E-03  0.137E-03
  1.328  0.148E-03  0.147E-03
  1.338  0.300E-01  0.298E-01
  1.348  0.823E+00  0.820E+00
  1.358  0.306E+01  0.305E+01
  1.368  0.156E+01  0.155E+01
  1.378  0.618E+00  0.615E+00
  1.388  0.255E+01  0.254E+01
  1.398  0.279E+01  0.278E+01
  1.408  0.971E+00  0.968E+00
  1.418  0.954E-01  0.952E-01
  1.428  0.167E-02  0.167E-02
  1.438  0.475E-02  0.473E-02
  1.448  0.285E+00  0.284E+00
  1.458  0.232E+01  0.231E+01
  1.468  0.272E+01  0.271E+01
  1.478  0.268E+01  0.267E+01
  1.488  0.454E+01  0.453E+01
  1.498  0.132E+01  0.131E+01
  1.508  0.350E+00  0.350E+00
  1.518  0.311E+00  0.311E+00
  1.528  0.436E-01  0.436E-01
  1.538  0.830E-03  0.829E-03
  1.548  0.561E-03  0.559E-03
  1.558  0.564E-01  0.562E-01
  1.568  0.785E+00  0.783E+00
  1.578  0.152E+01  0.151E+01
  1.588  0.405E+00  0.404E+00
  1.598  0.150E-01  0.149E-01
  1.608  0.480E-03  0.479E-03
  1.618  0.473E-01  0.472E-01
  1.628  0.786E+00  0.783E+00
  1.638  0.213E+01  0.212E+01
  1.648  0.217E+01  0.216E+01
  1.658  0.326E+01  0.325E+01
  1.668  0.126E+01  0.126E+01
  1.678  0.687E-01  0.685E-01
  1.688  0.516E-03  0.515E-03
  1.698  0.353E-02  0.353E-02
  1.708  0.181E+00  0.181E+00
  1.718  0.126E+01  0.126E+01
  1.728  0.121E+01  0.121E+01
  1.738  0.958E+00  0.955E+00
  1.748  0.366E+01  0.365E+01
  1.758  0.433E+01  0.432E+01
  1.768  0.206E+01  0.206E+01
  1.778  0.221E+00  0.221E+00
  1.788  0.114E-01  0.114E-01
  1.798  0.334E+00  0.332E+00
  1.808  0.225E+01  0.224E+01
  1.818  0.251E+01  0.251E+01
  1.828  0.114E+01  0.114E+01
  1.838  0.387E+01  0.386E+01
  1.848  0.490E+01  0.488E+01
  1.858  0.156E+01  0.155E+01
  1.868  0.883E-01  0.881E-01
  1.878  0.724E-03  0.722E-03
  1.888  0.865E-06  0.863E-06
  1.898  0.766E-04  0.765E-04
  1.908  0.157E-01  0.157E-01
  1.918  0.470E+00  0.470E+00
  1.928  0.265E+01  0.264E+01
  1.938  0.390E+01  0.389E+01
  1.948  0.124E+01  0.124E+01
  1.958  0.617E-01  0.615E-01
  1.968  0.427E-03  0.426E-03
  1.978  0.402E-06  0.400E-06
  1.988  0.512E-10  0.510E-10
  1.998  0.883E-15  0.881E-15
  2.008  0.141E-16  0.140E-16
  2.018  0.160E-11  0.159E-11
  2.028  0.246E-07  0.245E-07
  2.038  0.511E-04  0.510E-04
  2.048  0.144E-01  0.144E-01
  2.058  0.557E+00  0.555E+00
  2.068  0.323E+01  0.322E+01
  2.078  0.456E+01  0.455E+01
  2.088  0.247E+01  0.246E+01
  2.098  0.275E+00  0.275E+00
  2.108  0.442E-02  0.441E-02
  2.118  0.966E-05  0.964E-05
  2.128  0.347E-07  0.347E-07
  2.138  0.624E-04  0.623E-04
  2.148  0.165E-01  0.165E-01
  2.158  0.594E+00  0.593E+00
  2.168  0.296E+01  0.295E+01
  2.178  0.279E+01  0.279E+01
  2.188  0.164E+01  0.164E+01
  2.198  0.614E+00  0.613E+00
  2.208  0.228E+01  0.228E+01
  2.218  0.263E+01  0.262E+01
  2.228  0.150E+01  0.150E+01
  2.238  0.299E+01  0.298E+01
  2.248  0.134E+01  0.133E+01
  2.258  0.368E+00  0.367E+00
  2.268  0.228E+01  0.228E+01
  2.278  0.259E+01  0.258E+01
  2.288  0.398E+00  0.397E+00
  2.298  0.111E-01  0.111E-01
  2.308  0.185E+00  0.185E+00
  2.318  0.183E+01  0.183E+01
  2.328  0.283E+01  0.282E+01
  2.338  0.735E+00  0.734E+00
  2.348  0.112E+01  0.112E+01
  2.358  0.313E+01  0.313E+01
  2.368  0.122E+01  0.121E+01
  2.378  0.132E+00  0.132E+00
  2.388  0.113E+01  0.113E+01
  2.398  0.301E+01  0.300E+01
  2.408  0.188E+01  0.188E+01
  2.418  0.194E+01  0.194E+01
  2.428  0.289E+01  0.289E+01
  2.438  0.263E+01  0.262E+01
  2.448  0.845E+00  0.844E+00
  2.458  0.153E+01  0.153E+01
  2.468  0.233E+01  0.232E+01
  2.478  0.160E+01  0.159E+01
  2.488  0.268E+00  0.268E+00
  2.498  0.111E-01  0.111E-01
  2.508  0.206E+00  0.206E+00
  2.518  0.135E+01  0.134E+01
  2.528  0.179E+01  0.179E+01
  2.538  0.175E+01  0.175E+01
  2.548  0.125E+01  0.124E+01
  2.558  0.202E+01  0.202E+01
  2.568  0.123E+01  0.122E+01
  2.578  0.128E+00  0.128E+00
  2.588  0.196E-02  0.196E-02
  2.598  0.678E-02  0.677E-02
  2.608  0.272E+00  0.272E+00
  2.618  0.162E+01  0.161E+01
  2.628  0.178E+01  0.177E+01
  2.638  0.484E+00  0.483E+00
  2.648  0.547E+00  0.546E+00
  2.658  0.317E+01  0.317E+01
  2.668  0.660E+01  0.659E+01
  2.678  0.902E+01  0.900E+01
  2.688  0.276E+01  0.276E+01
  2.698  0.137E+00  0.137E+00
  2.708  0.249E+00  0.249E+00
  2.718  0.229E+01  0.229E+01
  2.728  0.322E+01  0.321E+01
  2.738  0.698E+00  0.697E+00
  2.748  0.231E-01  0.230E-01
  2.758  0.677E-02  0.675E-02
  2.768  0.263E+00  0.262E+00
  2.778  0.146E+01  0.146E+01
  2.788  0.223E+01  0.223E+01
  2.798  0.323E+01  0.322E+01
  2.808  0.109E+01  0.108E+01
  2.818  0.509E-01  0.508E-01
  2.828  0.114E-02  0.114E-02
  2.838  0.101E+00  0.101E+00
  2.848  0.177E+01  0.177E+01
  2.858  0.541E+01  0.540E+01
  2.868  0.503E+01  0.502E+01
  2.878  0.149E+01  0.149E+01
  2.888  0.914E-01  0.912E-01
  2.898  0.266E+00  0.266E+00
  2.908  0.157E+01  0.156E+01
  2.918  0.141E+01  0.141E+01
  2.928  0.309E+00  0.309E+00
  2.938  0.994E+00  0.992E+00
  2.948  0.141E+01  0.141E+01
  2.958  0.327E+00  0.327E+00
  2.968  0.785E+00  0.784E+00
  2.978  0.153E+01  0.152E+01
  2.988  0.407E+00  0.407E+00
  2.998  0.142E+00  0.142E+00
  3.008  0.111E+01  0.111E+01
  3.018  0.132E+01  0.132E+01
  3.028  0.271E+00  0.271E+00
  3.038  0.821E+00  0.820E+00
  3.048  0.151E+01  0.151E+01
  3.058  0.631E+00  0.630E+00
  3.068  0.223E+01  0.223E+01
  3.078  0.264E+01  0.264E+01
  3.088  0.441E+00  0.440E+00
  3.098  0.698E+00  0.697E+00
  3.108  0.458E+01  0.458E+01
  3.118  0.647E+01  0.646E+01
  3.128  0.481E+01  0.481E+01
  3.138  0.142E+01  0.142E+01
  3.148  0.888E-01  0.887E-01
  3.158  0.466E+00  0.466E+00
  3.168  0.155E+01  0.155E+01
  3.178  0.754E+00  0.754E+00
  3.188  0.854E+00  0.853E+00
  3.198  0.203E+01  0.203E+01
  3.208  0.196E+01  0.196E+01
  3.218  0.662E+00  0.661E+00
  3.228  0.364E-01  0.364E-01
  3.238  0.234E-02  0.234E-02
  3.248  0.170E+00  0.170E+00
  3.258  0.190E+01  0.190E+01
  3.268  0.288E+01  0.287E+01
  3.278  0.615E+00  0.615E+00
  3.288  0.584E+00  0.583E+00
  3.298  0.198E+01  0.197E+01
  3.308  0.321E+01  0.321E+01
  3.318  0.242E+01  0.241E+01
  3.328  0.142E+01  0.142E+01
  3.338  0.177E+01  0.176E+01
  3.348  0.943E+00  0.942E+00
  3.358  0.188E+00  0.187E+00
  3.368  0.497E+00  0.496E+00
  3.378  0.187E+01  0.186E+01
  3.388  0.213E+01  0.213E+01
  3.398  0.962E+00  0.961E+00
  3.408  0.803E-01  0.802E-01
  3.418  0.912E-01  0.911E-01
  3.428  0.120E+01  0.120E+01
  3.438  0.225E+01  0.225E+01
  3.448  0.598E+00  0.598E+00
  3.458  0.192E+00  0.192E+00
  3.468  0.130E+01  0.130E+01
  3.478  0.214E+01  0.214E+01
  3.488  0.253E+01  0.252E+01
  3.498  0.183E+01  0.183E+01
  3.508  0.350E+00  0.349E+00
  3.518  0.108E-01  0.108E-01
  3.528  0.458E-01  0.458E-01
  3.538  0.110E+01  0.110E+01
  3.548  0.417E+01  0.417E+01
  3.558  0.416E+01  0.416E+01
  3.568  0.347E+01  0.346E+01
  3.578  0.175E+01  0.175E+01
  3.588  0.193E+01  0.193E+01
  3.598  0.190E+01  0.190E+01
  3.608  0.858E+00  0.857E+00
  3.618  0.276E+00  0.275E+00
  3.628  0.263E+01  0.262E+01
  3.638  0.444E+01  0.443E+01
  3.648  0.102E+01  0.102E+01
  3.658  0.528E-01  0.527E-01
  3.668  0.486E+00  0.485E+00
  3.678  0.156E+01  0.155E+01
  3.688  0.675E+00  0.674E+00
  3.698  0.396E-01  0.396E-01
  3.708  0.315E-03  0.315E-03
  3.718  0.339E-06  0.338E-06
  3.728  0.180E-07  0.179E-07
  3.738  0.341E-04  0.341E-04
  3.748  0.881E-02  0.880E-02
  3.758  0.307E+00  0.307E+00
  3.768  0.146E+01  0.145E+01
  3.778  0.116E+01  0.116E+01
  3.788  0.221E+01  0.221E+01
  3.798  0.270E+01  0.270E+01
  3.808  0.475E+00  0.475E+00
  3.818  0.213E-01  0.213E-01
  3.828  0.389E+00  0.388E+00
  3.838  0.235E+01  0.235E+01
  3.848  0.416E+01  0.416E+01
  3.858  0.493E+01  0.493E+01
  3.868  0.284E+01  0.284E+01
  3.878  0.911E+00  0.910E+00
  3.888  0.150E+01  0.150E+01
  3.898  0.894E+00  0.893E+00
  3.908  0.327E+00  0.327E+00
  3.918  0.139E+01  0.139E+01
  3.928  0.103E+01  0.103E+01
  3.938  0.237E+00  0.237E+00
  3.948  0.510E+00  0.510E+00
  3.958  0.259E+00  0.259E+00
  3.968  0.316E-01  0.316E-01
  3.978  0.305E+00  0.305E+00
  3.988  0.122E+01  0.122E+01
  3.998  0.134E+01  0.134E+01
  4.008  0.350E+00  0.349E+00
  4.018  0.147E-01  0.147E-01
  4.028  0.188E-03  0.187E-03
  4.038  0.186E-01  0.186E-01
  4.048  0.462E+00  0.461E+00
  4.058  0.155E+01  0.155E+01
  4.068  0.704E+00  0.703E+00
  4.078  0.433E-01  0.432E-01
  4.088  0.360E-03  0.359E-03
  4.098  0.575E-06  0.574E-06
  4.108  0.196E-03  0.195E-03
  4.118  0.322E-01  0.322E-01
  4.128  0.799E+00  0.798E+00
  4.138  0.362E+01  0.362E+01
  4.148  0.437E+01  0.436E+01
  4.158  0.142E+01  0.142E+01
  4.168  0.131E+01  0.131E+01
  4.178  0.188E+01  0.187E+01
  4.188  0.649E+00  0.648E+00
  4.198  0.132E+01  0.132E+01
  4.208  0.113E+01  0.113E+01
  4.218  0.133E+00  0.133E+00
  4.228  0.212E-02  0.212E-02
  4.238  0.336E-03  0.336E-03
  4.248  0.249E-01  0.249E-01
  4.258  0.254E+00  0.253E+00
  4.268  0.352E+00  0.351E+00
  4.278  0.191E+00  0.191E+00
  4.288  0.694E+00  0.693E+00
  4.298  0.515E+00  0.514E+00
  4.308  0.518E-01  0.518E-01
  4.318  0.737E-03  0.736E-03
  4.328  0.824E-02  0.823E-02
  4.338  0.297E+00  0.296E+00
  4.348  0.149E+01  0.149E+01
  4.358  0.155E+01  0.155E+01
  4.368  0.106E+01  0.106E+01
  4.378  0.241E+00  0.241E+00
  4.388  0.556E+00  0.555E+00
  4.398  0.157E+01  0.156E+01
  4.408  0.660E+00  0.659E+00
  4.418  0.820E+00  0.819E+00
  4.428  0.152E+01  0.152E+01
  4.438  0.398E+00  0.397E+00
  4.448  0.141E-01  0.141E-01
  4.458  0.125E-02  0.125E-02
  4.468  0.929E-01  0.927E-01
  4.478  0.986E+00  0.984E+00
  4.488  0.142E+01  0.141E+01
  4.498  0.275E+00  0.275E+00
  4.508  0.818E-02  0.816E-02
  4.518  0.618E-01  0.617E-01
  4.528  0.551E+00  0.550E+00
  4.538  0.664E+00  0.663E+00
  4.548  0.108E+00  0.108E+00
  4.558  0.240E-02  0.239E-02
  4.568  0.716E-05  0.715E-05
  4.578  0.290E-08  0.289E-08
  4.588  0.159E-12  0.159E-12
  4.598  0.106E-13  0.106E-13
  4.608  0.331E-09  0.331E-09
  4.618  0.141E-05  0.140E-05
  4.628  0.808E-03  0.807E-03
  4.638  0.628E-01  0.627E-01
  4.648  0.661E+00  0.660E+00
  4.658  0.942E+00  0.941E+00
  4.668  0.246E+00  0.246E+00
  4.678  0.565E+00  0.565E+00
  4.688  0.656E+00  0.655E+00
  4.698  0.104E+00  0.104E+00
  4.708  0.973E-02  0.972E-02
  4.718  0.281E+00  0.280E+00
  4.728  0.142E+01  0.142E+01
  4.738  0.975E+00  0.974E+00
  4.748  0.904E-01  0.903E-01
  4.758  0.114E-02  0.113E-02
  4.768  0.193E-05  0.193E-05
  4.778  0.443E-09  0.443E-09
  4.788  0.138E-13  0.138E-13
  4.798  0.000E+00  0.000E+00
  4.808  0.000E+00  0.000E+00
  4.818  0.000E+00  0.000E+00
  4.828  0.000E+00  0.000E+00
  4.838  0.000E+00  0.000E+00
  4.848  0.000E+00  0.000E+00
  4.858  0.000E+00  0.000E+00
  4.868  0.000E+00  0.000E+00
  4.878  0.152E-14  0.152E-14
  4.888  0.669E-10  0.668E-10
  4.898  0.397E-06  0.397E-06
  4.908  0.319E-03  0.319E-03
  4.918  0.348E-01  0.347E-01
  4.928  0.516E+00  0.515E+00
  4.938  0.117E+01  0.117E+01
  4.948  0.996E+00  0.994E+00
  4.958  0.483E+00  0.482E+00
  4.968  0.420E-01  0.420E-01
  4.978  0.504E-03  0.504E-03
  4.988  0.820E-06  0.819E-06
  4.998  0.181E-09  0.180E-09
  5.008  0.623E-14  0.622E-14
  5.018  0.311E-10  0.311E-10
  5.028  0.153E-06  0.153E-06
  5.038  0.102E-03  0.102E-03
  5.048  0.916E-02  0.914E-02
  5.058  0.112E+00  0.111E+00
  5.068  0.184E+00  0.184E+00
  5.078  0.411E-01  0.410E-01
  5.088  0.124E-02  0.124E-02
  5.098  0.507E-05  0.506E-05
  5.108  0.281E-08  0.280E-08
  5.118  0.210E-12  0.210E-12
  5.128  0.213E-17  0.213E-17
  5.138  0.000E+00  0.000E+00
  5.148  0.000E+00  0.000E+00
  5.158  0.000E+00  0.000E+00
  5.168  0.000E+00  0.000E+00
  5.178  0.000E+00  0.000E+00
  5.188  0.000E+00  0.000E+00
  5.198  0.000E+00  0.000E+00
  5.208  0.000E+00  0.000E+00
  5.218  0.000E+00  0.000E+00
  5.228  0.000E+00  0.000E+00
  5.238  0.000E+00  0.000E+00
  5.248  0.000E+00  0.000E+00
  5.258  0.000E+00  0.000E+00
  5.268  0.000E+00  0.000E+00
  5.278  0.000E+00  0.000E+00
  5.288  0.000E+00  0.000E+00
  5.298  0.000E+00  0.000E+00
  5.308  0.000E+00  0.000E+00
  5.318  0.000E+00  0.000E+00
  5.328  0.000E+00  0.000E+00
  5.338  0.000E+00  0.000E+00
  5.348  0.000E+00  0.000E+00
  5.358  0.000E+00  0.000E+00
  5.368  0.000E+00  0.000E+00
  5.378  0.000E+00  0.000E+00
  5.388  0.000E+00  0.000E+00
  5.398  0.000E+00  0.000E+00
  5.408  0.000E+00  0.000E+00
  5.418  0.000E+00  0.000E+00
  5.428  0.000E+00  0.000E+00
  5.438  0.000E+00  0.000E+00
  5.448  0.000E+00  0.000E+00
  5.458  0.000E+00  0.000E+00
  5.468  0.000E+00  0.000E+00
  5.478  0.000E+00  0.000E+00
  5.488  0.000E+00  0.000E+00
  5.498  0.000E+00  0.000E+00
  5.508  0.000E+00  0.000E+00
  5.518  0.000E+00  0.000E+00
  5.528  0.000E+00  0.000E+00
  5.538  0.000E+00  0.000E+00
  5.548  0.000E+00  0.000E+00
  5.558  0.000E+00  0.000E+00
  5.568  0.000E+00  0.000E+00
  5.578  0.000E+00  0.000E+00
  5.588  0.000E+00  0.000E+00
  5.598  0.000E+00  0.000E+00
  5.608  0.000E+00  0.000E+00
  5.618  0.000E+00  0.000E+00
  5.628  0.000E+00  0.000E+00
  5.638  0.000E+00  0.000E+00
  5.648  0.000E+00  0.000E+00
  5.658  0.664E-18  0.663E-18
  5.668  0.879E-13  0.878E-13
  5.678  0.157E-08  0.157E-08
  5.688  0.382E-05  0.382E-05
  5.698  0.125E-02  0.125E-02
  5.708  0.557E-01  0.557E-01
  5.718  0.335E+00  0.335E+00
  5.728  0.272E+00  0.272E+00
  5.738  0.300E-01  0.300E-01
  5.748  0.447E-03  0.447E-03
  5.758  0.901E-06  0.900E-06
  5.768  0.246E-09  0.246E-09
  5.778  0.908E-14  0.908E-14
  5.788  0.493E-16  0.493E-16
  5.798  0.327E-11  0.327E-11
  5.808  0.293E-07  0.293E-07
  5.818  0.356E-04  0.356E-04
  5.828  0.584E-02  0.584E-02
  5.838  0.130E+00  0.130E+00
  5.848  0.392E+00  0.392E+00
  5.858  0.223E+00  0.222E+00
  5.868  0.356E+00  0.355E+00
  5.878  0.257E+00  0.256E+00
  5.888  0.257E-01  0.257E-01
  5.898  0.382E-02  0.382E-02
  5.908  0.179E+00  0.179E+00
  5.918  0.125E+01  0.125E+01
  5.928  0.119E+01  0.119E+01
  5.938  0.152E+00  0.152E+00
  5.948  0.263E-02  0.263E-02
  5.958  0.617E-05  0.617E-05
  5.968  0.206E-06  0.206E-06
  5.978  0.216E-03  0.215E-03
  5.988  0.309E-01  0.308E-01
  5.998  0.598E+00  0.597E+00
  6.008  0.157E+01  0.157E+01
  6.018  0.556E+00  0.555E+00
  6.028  0.267E-01  0.267E-01
  6.038  0.177E-03  0.177E-03
  6.048  0.149E-02  0.149E-02
  6.058  0.820E-01  0.819E-01
  6.068  0.609E+00  0.608E+00
  6.078  0.612E+00  0.611E+00
  6.088  0.832E-01  0.831E-01
  6.098  0.153E-02  0.153E-02
  6.108  0.382E-05  0.381E-05
  6.118  0.129E-08  0.129E-08
  6.128  0.239E-07  0.239E-07
  6.138  0.276E-04  0.275E-04
  6.148  0.431E-02  0.431E-02
  6.158  0.914E-01  0.912E-01
  6.168  0.288E+00  0.287E+00
  6.178  0.655E+00  0.655E+00
  6.188  0.157E+01  0.157E+01
  6.198  0.623E+00  0.623E+00
  6.208  0.305E+00  0.304E+00
  6.218  0.655E+00  0.654E+00
  6.228  0.556E+00  0.555E+00
  6.238  0.109E+00  0.108E+00
  6.248  0.317E-02  0.317E-02
  6.258  0.185E-04  0.185E-04
  6.268  0.253E-02  0.252E-02
  6.278  0.148E+00  0.148E+00
  6.288  0.118E+01  0.118E+01
  6.298  0.132E+01  0.132E+01
  6.308  0.994E+00  0.993E+00
  6.318  0.166E+01  0.166E+01
  6.328  0.821E+00  0.820E+00
  6.338  0.851E+00  0.850E+00
  6.348  0.156E+01  0.156E+01
  6.358  0.472E+00  0.472E+00
  6.368  0.240E-01  0.240E-01
  6.378  0.130E+00  0.130E+00
  6.388  0.506E+00  0.505E+00
  6.398  0.266E+00  0.265E+00
  6.408  0.261E-01  0.261E-01
  6.418  0.275E+00  0.274E+00
  6.428  0.142E+01  0.141E+01
  6.438  0.109E+01  0.109E+01
  6.448  0.153E+01  0.153E+01
  6.458  0.303E+01  0.303E+01
  6.468  0.947E+00  0.946E+00
  6.478  0.434E-01  0.434E-01
  6.488  0.113E-01  0.113E-01
  6.498  0.348E+00  0.347E+00
  6.508  0.149E+01  0.149E+01
  6.518  0.862E+00  0.861E+00
  6.528  0.676E-01  0.674E-01
  6.538  0.717E-03  0.715E-03
  6.548  0.103E-05  0.103E-05
  6.558  0.223E-05  0.222E-05
  6.568  0.130E-02  0.130E-02
  6.578  0.111E+00  0.110E+00
  6.588  0.155E+01  0.155E+01
  6.598  0.424E+01  0.423E+01
  6.608  0.224E+01  0.224E+01
  6.618  0.248E+00  0.247E+00
  6.628  0.528E+00  0.527E+00
  6.638  0.696E+00  0.695E+00
  6.648  0.334E+00  0.333E+00
  6.658  0.524E+00  0.522E+00
  6.668  0.173E+00  0.172E+00
  6.678  0.774E-02  0.772E-02
  6.688  0.153E-03  0.153E-03
  6.698  0.192E-01  0.191E-01
  6.708  0.471E+00  0.470E+00
  6.718  0.168E+01  0.168E+01
  6.728  0.187E+01  0.186E+01
  6.738  0.211E+01  0.211E+01
  6.748  0.250E+01  0.250E+01
  6.758  0.222E+01  0.222E+01
  6.768  0.101E+01  0.101E+01
  6.778  0.185E+01  0.185E+01
  6.788  0.295E+01  0.294E+01
  6.798  0.975E+00  0.973E+00
  6.808  0.256E+01  0.255E+01
  6.818  0.412E+01  0.412E+01
  6.828  0.260E+01  0.260E+01
  6.838  0.144E+01  0.143E+01
  6.848  0.118E+01  0.118E+01
  6.858  0.141E+01  0.140E+01
  6.868  0.265E+00  0.265E+00
  6.878  0.678E-02  0.677E-02
  6.888  0.235E-04  0.234E-04
  6.898  0.471E-04  0.470E-04
  6.908  0.136E-01  0.136E-01
  6.918  0.531E+00  0.530E+00
  6.928  0.281E+01  0.280E+01
  6.938  0.202E+01  0.202E+01
  6.948  0.598E+00  0.597E+00
  6.958  0.194E+01  0.193E+01
  6.968  0.236E+01  0.236E+01
  6.978  0.145E+01  0.145E+01
  6.988  0.339E+01  0.338E+01
  6.998  0.418E+01  0.417E+01
  7.008  0.135E+01  0.135E+01
  7.018  0.150E+01  0.150E+01
  7.028  0.916E+00  0.913E+00
  7.038  0.777E-01  0.775E-01
  7.048  0.424E-02  0.423E-02
  7.058  0.176E+00  0.175E+00
  7.068  0.125E+01  0.125E+01
  7.078  0.140E+01  0.140E+01
  7.088  0.168E+01  0.167E+01
  7.098  0.153E+01  0.153E+01
  7.108  0.220E+00  0.219E+00
  7.118  0.486E+00  0.484E+00
  7.128  0.274E+01  0.273E+01
  7.138  0.217E+01  0.216E+01
  7.148  0.145E+01  0.145E+01
  7.158  0.313E+01  0.313E+01
  7.168  0.108E+01  0.107E+01
  7.178  0.881E-01  0.876E-01
  7.188  0.611E-01  0.605E-01
  7.198  0.131E-01  0.130E-01
  7.208  0.138E-01  0.137E-01
  7.218  0.409E+00  0.407E+00
  7.228  0.223E+01  0.222E+01
  7.238  0.380E+01  0.378E+01
  7.248  0.175E+01  0.175E+01
  7.258  0.143E+00  0.142E+00
  7.268  0.245E+00  0.243E+00
  7.278  0.135E+01  0.135E+01
  7.288  0.397E+01  0.396E+01
  7.298  0.338E+01  0.337E+01
  7.308  0.910E+00  0.908E+00
  7.318  0.517E+00  0.515E+00
  7.328  0.305E+01  0.304E+01
  7.338  0.665E+01  0.664E+01
  7.348  0.478E+01  0.476E+01
  7.358  0.203E+01  0.203E+01
  7.368  0.923E+00  0.920E+00
  7.378  0.175E+00  0.175E+00
  7.388  0.540E-02  0.538E-02
  7.398  0.229E-04  0.228E-04
  7.408  0.661E-06  0.659E-06
  7.418  0.609E-03  0.607E-03
  7.428  0.776E-01  0.773E-01
  7.438  0.134E+01  0.133E+01
  7.448  0.312E+01  0.311E+01
  7.458  0.983E+00  0.980E+00
  7.468  0.429E-01  0.427E-01
  7.478  0.766E-01  0.763E-01
  7.488  0.908E+00  0.905E+00
  7.498  0.147E+01  0.146E+01
  7.508  0.507E+00  0.506E+00
  7.518  0.253E+01  0.252E+01
  7.528  0.553E+01  0.551E+01
  7.538  0.491E+01  0.489E+01
  7.548  0.445E+01  0.443E+01
  7.558  0.156E+01  0.156E+01
  7.568  0.521E+00  0.520E+00
  7.578  0.105E+00  0.105E+00
  7.588  0.561E-02  0.561E-02
  7.598  0.462E-04  0.462E-04
  7.608  0.899E-07  0.898E-07
  7.618  0.709E-04  0.707E-04
  7.628  0.181E-01  0.180E-01
  7.638  0.624E+00  0.622E+00
  7.648  0.294E+01  0.293E+01
  7.658  0.239E+01  0.238E+01
  7.668  0.172E+01  0.172E+01
  7.678  0.607E+00  0.605E+00
  7.688  0.341E-01  0.340E-01
  7.698  0.112E+00  0.111E+00
  7.708  0.728E+00  0.726E+00
  7.718  0.136E+01  0.136E+01
  7.728  0.160E+01  0.160E+01
  7.738  0.993E+00  0.989E+00
  7.748  0.185E+01  0.185E+01
  7.758  0.157E+01  0.157E+01
  7.768  0.544E+00  0.543E+00
  7.778  0.142E+00  0.141E+00
  7.788  0.120E+01  0.119E+01
  7.798  0.233E+01  0.231E+01
  7.808  0.205E+01  0.204E+01
  7.818  0.279E+01  0.278E+01
  7.828  0.319E+01  0.318E+01
  7.838  0.801E+00  0.798E+00
  7.848  0.920E-01  0.916E-01
  7.858  0.840E+00  0.836E+00
  7.868  0.150E+01  0.149E+01
  7.878  0.430E+00  0.428E+00
  7.888  0.582E+00  0.579E+00
  7.898  0.648E+00  0.644E+00
  7.908  0.995E-01  0.989E-01
  7.918  0.255E-02  0.253E-02
  7.928  0.312E-01  0.309E-01
  7.938  0.276E+00  0.273E+00
  7.948  0.331E+00  0.328E+00
  7.958  0.537E-01  0.531E-01
  7.968  0.128E-02  0.127E-02
  7.978  0.268E-01  0.266E-01
  7.988  0.100E+01  0.995E+00
  7.998  0.539E+01  0.536E+01
  8.008  0.439E+01  0.437E+01
  8.018  0.172E+01  0.172E+01
  8.028  0.121E+01  0.120E+01
  8.038  0.157E+00  0.157E+00
  8.048  0.282E-02  0.281E-02
  8.058  0.101E-01  0.101E-01
  8.068  0.367E+00  0.365E+00
  8.078  0.208E+01  0.207E+01
  8.088  0.236E+01  0.235E+01
  8.098  0.187E+01  0.186E+01
  8.108  0.151E+01  0.150E+01
  8.118  0.171E+01  0.170E+01
  8.128  0.173E+01  0.172E+01
  8.138  0.304E+01  0.303E+01
  8.148  0.128E+01  0.128E+01
  8.158  0.844E+00  0.842E+00
  8.168  0.261E+01  0.260E+01
  8.178  0.323E+01  0.321E+01
  8.188  0.163E+01  0.162E+01
  8.198  0.444E+01  0.442E+01
  8.208  0.359E+01  0.358E+01
  8.218  0.197E+01  0.195E+01
  8.228  0.121E+01  0.120E+01
  8.238  0.233E+01  0.232E+01
  8.248  0.459E+01  0.457E+01
  8.258  0.132E+01  0.132E+01
  8.268  0.211E+00  0.210E+00
  8.278  0.149E+01  0.148E+01
  8.288  0.274E+01  0.273E+01
  8.298  0.175E+01  0.175E+01
  8.308  0.326E+01  0.325E+01
  8.318  0.320E+01  0.319E+01
  8.328  0.119E+01  0.118E+01
  8.338  0.317E+00  0.316E+00
  8.348  0.132E+01  0.132E+01
  8.358  0.116E+01  0.115E+01
  8.368  0.845E+00  0.837E+00
  8.378  0.156E+01  0.154E+01
  8.388  0.815E+00  0.808E+00
  8.398  0.187E+01  0.186E+01
  8.408  0.245E+01  0.244E+01
  8.418  0.149E+01  0.148E+01
  8.428  0.138E+01  0.138E+01
  8.438  0.172E+01  0.172E+01
  8.448  0.189E+01  0.189E+01
  8.458  0.220E+01  0.220E+01
  8.468  0.174E+01  0.174E+01
  8.478  0.699E+00  0.697E+00
  8.488  0.691E+00  0.690E+00
  8.498  0.567E+00  0.566E+00
  8.508  0.944E-01  0.943E-01
  8.518  0.485E+00  0.484E+00
  8.528  0.179E+01  0.178E+01
  8.538  0.395E+01  0.392E+01
  8.548  0.327E+01  0.324E+01
  8.558  0.669E+00  0.662E+00
  8.568  0.742E+00  0.741E+00
  8.578  0.299E+01  0.299E+01
  8.588  0.172E+01  0.172E+01
  8.598  0.973E+00  0.967E+00
  8.608  0.397E+01  0.394E+01
  8.618  0.313E+01  0.310E+01
  8.628  0.887E+00  0.883E+00
  8.638  0.227E+01  0.226E+01
  8.648  0.493E+01  0.490E+01
  8.658  0.600E+01  0.596E+01
  8.668  0.288E+01  0.286E+01
  8.678  0.127E+01  0.125E+01
  8.688  0.243E+01  0.242E+01
  8.698  0.273E+01  0.271E+01
  8.708  0.633E+00  0.628E+00
  8.718  0.372E+00  0.367E+00
  8.728  0.408E+00  0.404E+00
  8.738  0.123E+01  0.122E+01
  8.748  0.124E+01  0.124E+01
  8.758  0.173E+00  0.173E+00
  8.768  0.327E-02  0.327E-02
  8.778  0.625E-02  0.620E-02
  8.788  0.336E+00  0.334E+00
  8.798  0.246E+01  0.244E+01
  8.808  0.243E+01  0.241E+01
  8.818  0.324E+00  0.322E+00
  8.828  0.601E-02  0.597E-02
  8.838  0.234E-01  0.232E-01
  8.848  0.548E+00  0.543E+00
  8.858  0.215E+01  0.214E+01
  8.868  0.221E+01  0.219E+01
  8.878  0.598E+00  0.594E+00
  8.888  0.707E-01  0.705E-01
  8.898  0.704E+00  0.703E+00
  8.908  0.167E+01  0.167E+01
  8.918  0.211E+01  0.211E+01
  8.928  0.310E+01  0.309E+01
  8.938  0.160E+01  0.159E+01
  8.948  0.168E+01  0.167E+01
  8.958  0.157E+01  0.156E+01
  8.968  0.123E+01  0.123E+01
  8.978  0.168E+00  0.168E+00
  8.988  0.129E+00  0.128E+00
  8.998  0.116E+01  0.115E+01
  9.008  0.214E+01  0.213E+01
  9.018  0.340E+01  0.337E+01
  9.028  0.536E+01  0.532E+01
  9.038  0.330E+01  0.328E+01
  9.048  0.109E+01  0.109E+01
  9.058  0.139E+00  0.138E+00
  9.068  0.772E+00  0.765E+00
  9.078  0.244E+01  0.242E+01
  9.088  0.261E+01  0.259E+01
  9.098  0.992E+00  0.982E+00
  9.108  0.856E-01  0.847E-01
  9.118  0.126E-02  0.125E-02
  9.128  0.275E-05  0.272E-05
  9.138  0.301E-08  0.300E-08
  9.148  0.575E-05  0.574E-05
  9.158  0.206E-02  0.206E-02
  9.168  0.103E+00  0.103E+00
  9.178  0.850E+00  0.848E+00
  9.188  0.188E+01  0.187E+01
  9.198  0.121E+01  0.120E+01
  9.208  0.482E+00  0.478E+00
  9.218  0.258E+01  0.255E+01
  9.228  0.400E+01  0.395E+01
  9.238  0.451E+01  0.445E+01
  9.248  0.220E+01  0.217E+01
  9.258  0.247E+00  0.244E+00
  9.268  0.519E-01  0.512E-01
  9.278  0.495E+00  0.489E+00
  9.288  0.706E+00  0.697E+00
  9.298  0.136E+00  0.134E+00
  9.308  0.355E-02  0.351E-02
  9.318  0.425E-03  0.420E-03
  9.328  0.473E-01  0.468E-01
  9.338  0.736E+00  0.728E+00
  9.348  0.169E+01  0.167E+01
  9.358  0.201E+01  0.199E+01
  9.368  0.472E+01  0.469E+01
  9.378  0.405E+01  0.403E+01
  9.388  0.951E+00  0.946E+00
  9.398  0.308E+01  0.307E+01
  9.408  0.413E+01  0.411E+01
  9.418  0.100E+01  0.997E+00
  9.428  0.210E+01  0.210E+01
  9.438  0.275E+01  0.274E+01
  9.448  0.492E+00  0.490E+00
  9.458  0.259E-01  0.258E-01
  9.468  0.574E+00  0.571E+00
  9.478  0.355E+01  0.353E+01
  9.488  0.435E+01  0.431E+01
  9.498  0.219E+01  0.216E+01
  9.508  0.420E+00  0.414E+00
  9.518  0.142E-01  0.140E-01
  9.528  0.107E-01  0.105E-01
  9.538  0.460E+00  0.454E+00
  9.548  0.270E+01  0.267E+01
  9.558  0.218E+01  0.215E+01
  9.568  0.109E+01  0.107E+01
  9.578  0.392E+01  0.387E+01
  9.588  0.309E+01  0.307E+01
  9.598  0.463E+00  0.459E+00
  9.608  0.432E+00  0.423E+00
  9.618  0.231E+01  0.228E+01
  9.628  0.549E+01  0.543E+01
  9.638  0.255E+01  0.253E+01
  9.648  0.921E+00  0.915E+00
  9.658  0.369E+00  0.366E+00
  9.668  0.913E+00  0.896E+00
  9.678  0.147E+01  0.144E+01
  9.688  0.330E+00  0.324E+00
  9.698  0.227E+00  0.226E+00
  9.708  0.133E+01  0.133E+01
  9.718  0.110E+01  0.110E+01
  9.728  0.123E+00  0.123E+00
  9.738  0.135E-01  0.133E-01
  9.748  0.358E+00  0.354E+00
  9.758  0.150E+01  0.148E+01
  9.768  0.846E+00  0.837E+00
  9.778  0.657E-01  0.650E-01
  9.788  0.115E+00  0.114E+00
  9.798  0.203E+01  0.201E+01
  9.808  0.584E+01  0.578E+01
  9.818  0.465E+01  0.457E+01
  9.828  0.120E+01  0.117E+01
  9.838  0.557E-01  0.544E-01
  9.848  0.366E-03  0.358E-03
  9.858  0.570E-04  0.563E-04
  9.868  0.157E-01  0.155E-01
  9.878  0.598E+00  0.590E+00
  9.888  0.325E+01  0.321E+01
  9.898  0.273E+01  0.269E+01
  9.908  0.101E+01  0.997E+00
  9.918  0.157E+01  0.157E+01
  9.928  0.552E+00  0.549E+00
  9.938  0.566E+00  0.555E+00
  9.948  0.157E+01  0.153E+01
  9.958  0.612E+00  0.599E+00
  9.968  0.324E-01  0.317E-01
  9.978  0.232E-03  0.227E-03
  9.988  0.268E-06  0.263E-06
  9.998  0.797E-04  0.784E-04
 10.008  0.196E-01  0.193E-01
 10.018  0.653E+00  0.642E+00
 10.028  0.294E+01  0.289E+01
 10.038  0.179E+01  0.176E+01
 10.048  0.148E+00  0.145E+00
 10.058  0.166E-02  0.163E-02
 10.068  0.294E-02  0.291E-02
 10.078  0.204E+00  0.201E+00
 10.088  0.229E+01  0.226E+01
 10.098  0.447E+01  0.440E+01
 10.108  0.237E+01  0.233E+01
 10.118  0.205E+01  0.201E+01
 10.128  0.185E+01  0.180E+01
 10.138  0.686E+00  0.668E+00
 10.148  0.187E+01  0.185E+01
 10.158  0.601E+01  0.595E+01
 10.168  0.296E+01  0.293E+01
 10.178  0.224E+00  0.222E+00
 10.188  0.260E-02  0.259E-02
 10.198  0.448E-04  0.436E-04
 10.208  0.823E-02  0.798E-02
 10.218  0.252E+00  0.245E+00
 10.228  0.145E+01  0.142E+01
 10.238  0.193E+01  0.189E+01
 10.248  0.503E+00  0.494E+00
 10.258  0.203E-01  0.199E-01
 10.268  0.231E-01  0.228E-01
 10.278  0.515E+00  0.509E+00
 10.288  0.156E+01  0.154E+01
 10.298  0.641E+00  0.634E+00
 10.308  0.356E-01  0.352E-01
 10.318  0.268E-03  0.264E-03
 10.328  0.661E-06  0.656E-06
 10.338  0.349E-03  0.347E-03
 10.348  0.424E-01  0.421E-01
 10.358  0.697E+00  0.693E+00
 10.368  0.155E+01  0.154E+01
 10.378  0.476E+00  0.473E+00
 10.388  0.433E+00  0.422E+00
 10.398  0.262E+01  0.255E+01
 10.408  0.225E+01  0.219E+01
 10.418  0.285E+00  0.278E+00
 10.428  0.750E+00  0.742E+00
 10.438  0.301E+01  0.298E+01
 10.448  0.165E+01  0.163E+01
 10.458  0.151E+00  0.149E+00
 10.468  0.615E+00  0.612E+00
 10.478  0.292E+01  0.290E+01
 10.488  0.291E+01  0.289E+01
 10.498  0.850E+00  0.844E+00
 10.508  0.256E+01  0.254E+01
 10.518  0.233E+01  0.232E+01
 10.528  0.289E+00  0.287E+00
 10.538  0.484E-02  0.482E-02
 10.548  0.259E-02  0.256E-02
 10.558  0.196E+00  0.193E+00
 10.568  0.201E+01  0.199E+01
 10.578  0.281E+01  0.277E+01
 10.588  0.908E+00  0.895E+00
 10.598  0.283E+01  0.280E+01
 10.608  0.319E+01  0.317E+01
 10.618  0.530E+00  0.526E+00
 10.628  0.124E-01  0.123E-01
 10.638  0.689E-03  0.666E-03
 10.648  0.655E-01  0.632E-01
 10.658  0.980E+00  0.949E+00
 10.668  0.275E+01  0.268E+01
 10.678  0.227E+01  0.223E+01
 10.688  0.796E+00  0.779E+00
 10.698  0.170E+00  0.168E+00
 10.708  0.979E+00  0.969E+00
 10.718  0.142E+01  0.141E+01
 10.728  0.377E+00  0.373E+00
 10.738  0.158E+01  0.156E+01
 10.748  0.481E+01  0.477E+01
 10.758  0.557E+01  0.553E+01
 10.768  0.219E+01  0.217E+01
 10.778  0.329E+01  0.322E+01
 10.788  0.386E+01  0.376E+01
 10.798  0.839E+00  0.815E+00
 10.808  0.660E+00  0.646E+00
 10.818  0.156E+01  0.153E+01
 10.828  0.524E+00  0.513E+00
 10.838  0.238E-01  0.233E-01
 10.848  0.219E-03  0.215E-03
 10.858  0.149E-01  0.146E-01
 10.868  0.411E+00  0.401E+00
 10.878  0.153E+01  0.149E+01
 10.888  0.771E+00  0.753E+00
 10.898  0.976E-01  0.956E-01
 10.908  0.718E+00  0.706E+00
 10.918  0.155E+01  0.152E+01
 10.928  0.459E+00  0.451E+00
 10.938  0.316E+00  0.313E+00
 10.948  0.144E+01  0.143E+01
 10.958  0.972E+00  0.966E+00
 10.968  0.645E+00  0.641E+00
 10.978  0.158E+01  0.157E+01
 10.988  0.101E+01  0.984E+00
 10.998  0.156E+01  0.149E+01
 11.008  0.767E+00  0.734E+00
 11.018  0.723E-01  0.694E-01
 11.028  0.703E+00  0.683E+00
 11.038  0.335E+01  0.325E+01
 11.048  0.220E+01  0.214E+01
 11.058  0.202E+00  0.195E+00
 11.068  0.258E-02  0.249E-02
 11.078  0.471E-05  0.454E-05
 11.088  0.915E-04  0.902E-04
 11.098  0.173E-01  0.171E-01
 11.108  0.445E+00  0.438E+00
 11.118  0.154E+01  0.152E+01
 11.128  0.750E+00  0.739E+00
 11.138  0.800E+00  0.785E+00
 11.148  0.342E+01  0.335E+01
 11.158  0.331E+01  0.324E+01
 11.168  0.160E+01  0.157E+01
 11.178  0.562E+00  0.558E+00
 11.188  0.502E-01  0.500E-01
 11.198  0.660E-03  0.658E-03
 11.208  0.119E-05  0.118E-05
 11.218  0.288E-09  0.287E-09
 11.228  0.112E-11  0.110E-11
 11.238  0.138E-07  0.136E-07
 11.248  0.240E-04  0.236E-04
 11.258  0.590E-02  0.581E-02
 11.268  0.208E+00  0.204E+00
 11.278  0.107E+01  0.105E+01
 11.288  0.130E+01  0.128E+01
 11.298  0.182E+01  0.179E+01
 11.308  0.253E+01  0.249E+01
 11.318  0.289E+01  0.284E+01
 11.328  0.573E+00  0.564E+00
 11.338  0.156E-01  0.153E-01
 11.348  0.571E-04  0.562E-04
 11.358  0.886E-06  0.870E-06
 11.368  0.627E-03  0.616E-03
 11.378  0.620E-01  0.609E-01
 11.388  0.830E+00  0.815E+00
 11.398  0.150E+01  0.148E+01
 11.408  0.369E+00  0.363E+00
 11.418  0.885E-01  0.859E-01
 11.428  0.133E+01  0.129E+01
 11.438  0.312E+01  0.302E+01
 11.448  0.993E+00  0.963E+00
 11.458  0.487E-01  0.473E-01
 11.468  0.250E+00  0.247E+00
 11.478  0.167E+01  0.164E+01
 11.488  0.340E+01  0.330E+01
 11.498  0.263E+01  0.254E+01
 11.508  0.489E+00  0.474E+00
 11.518  0.110E+01  0.108E+01
 11.528  0.133E+01  0.131E+01
 11.538  0.220E+00  0.216E+00
 11.548  0.149E-01  0.147E-01
 11.558  0.336E+00  0.331E+00
 11.568  0.169E+01  0.167E+01
 11.578  0.219E+01  0.215E+01
 11.588  0.158E+01  0.155E+01
 11.598  0.166E+01  0.164E+01
 11.608  0.876E+00  0.862E+00
 11.618  0.983E+00  0.963E+00
 11.628  0.212E+01  0.208E+01
 11.638  0.224E+01  0.219E+01
 11.648  0.202E+01  0.195E+01
 11.658  0.886E+00  0.852E+00
 11.668  0.142E+00  0.139E+00
 11.678  0.900E+00  0.890E+00
 11.688  0.147E+01  0.145E+01
 11.698  0.538E+00  0.529E+00
 11.708  0.237E+01  0.232E+01
 11.718  0.360E+01  0.353E+01
 11.728  0.882E+00  0.862E+00
 11.738  0.168E+01  0.161E+01
 11.748  0.330E+01  0.319E+01
 11.758  0.293E+01  0.285E+01
 11.768  0.255E+01  0.246E+01
 11.778  0.661E+00  0.638E+00
 11.788  0.116E+01  0.115E+01
 11.798  0.157E+01  0.156E+01
 11.808  0.161E+01  0.160E+01
 11.818  0.999E+00  0.989E+00
 11.828  0.952E-01  0.943E-01
 11.838  0.251E-01  0.249E-01
 11.848  0.368E+00  0.365E+00
 11.858  0.770E+00  0.763E+00
 11.868  0.227E+00  0.225E+00
 11.878  0.316E+00  0.310E+00
 11.888  0.145E+01  0.143E+01
 11.898  0.964E+00  0.947E+00
 11.908  0.758E+00  0.743E+00
 11.918  0.221E+01  0.217E+01
 11.928  0.208E+01  0.203E+01
 11.938  0.530E+00  0.516E+00
 11.948  0.263E-01  0.256E-01
 11.958  0.143E+00  0.141E+00
 11.968  0.714E+00  0.703E+00
 11.978  0.500E+00  0.491E+00
 11.988  0.604E+00  0.585E+00
 11.998  0.278E+01  0.267E+01
 12.008  0.199E+01  0.190E+01
 12.018  0.207E+00  0.196E+00
 12.028  0.356E-01  0.351E-01
 12.038  0.939E+00  0.929E+00
 12.048  0.453E+01  0.447E+01
 12.058  0.549E+01  0.539E+01
 12.068  0.723E+01  0.710E+01
 12.078  0.652E+01  0.642E+01
 12.088  0.178E+01  0.175E+01
 12.098  0.154E+01  0.151E+01
 12.108  0.399E+00  0.391E+00
 12.118  0.182E+00  0.180E+00
 12.128  0.136E+01  0.135E+01
 12.138  0.213E+01  0.211E+01
 12.148  0.310E+01  0.307E+01
 12.158  0.205E+01  0.203E+01
 12.168  0.203E+00  0.200E+00
 12.178  0.351E-02  0.346E-02
 12.188  0.756E-01  0.741E-01
 12.198  0.106E+01  0.104E+01
 12.208  0.242E+01  0.237E+01
 12.218  0.100E+01  0.987E+00
 12.228  0.146E+00  0.144E+00
 12.238  0.884E+00  0.875E+00
 12.248  0.158E+01  0.155E+01
 12.258  0.114E+01  0.109E+01
 12.268  0.140E+01  0.135E+01
 12.278  0.464E+00  0.453E+00
 12.288  0.251E-01  0.246E-01
 12.298  0.778E-01  0.765E-01
 12.308  0.119E+01  0.116E+01
 12.318  0.299E+01  0.290E+01
 12.328  0.132E+01  0.124E+01
 12.338  0.996E-01  0.869E-01
 12.348  0.123E-02  0.920E-03
 12.358  0.244E-05  0.139E-05
 12.368  0.783E-09  0.288E-09
 12.378  0.399E-13  0.820E-14
 12.388  0.332E-17  0.249E-17
 12.398  0.297E-12  0.243E-12
 12.408  0.396E-08  0.324E-08
 12.418  0.727E-05  0.598E-05
 12.428  0.196E-02  0.164E-02
 12.438  0.907E-01  0.791E-01
 12.448  0.884E+00  0.811E+00
 12.458  0.171E+01  0.162E+01
 12.468  0.532E+00  0.508E+00
 12.478  0.157E+00  0.150E+00
 12.488  0.123E+01  0.116E+01
 12.498  0.180E+01  0.166E+01
 12.508  0.508E+00  0.447E+00
 12.518  0.296E-01  0.250E-01
 12.528  0.541E-02  0.521E-02
 12.538  0.301E+00  0.290E+00
 12.548  0.269E+01  0.256E+01
 12.558  0.451E+01  0.420E+01
 12.568  0.417E+01  0.392E+01
 12.578  0.345E+01  0.332E+01
 12.588  0.177E+01  0.173E+01
 12.598  0.230E+01  0.221E+01
 12.608  0.175E+01  0.164E+01
 12.618  0.370E+00  0.345E+00
 12.628  0.517E+00  0.486E+00
 12.638  0.204E+01  0.185E+01
 12.648  0.144E+01  0.127E+01
 12.658  0.162E+00  0.141E+00
 12.668  0.375E-02  0.232E-02
 12.678  0.576E-01  0.878E-03
 12.688  0.421E+00  0.136E-01
 12.698  0.692E+00  0.288E+00
 12.708  0.236E+01  0.222E+01
 12.718  0.493E+01  0.473E+01
 12.728  0.403E+01  0.390E+01
 12.738  0.150E+01  0.147E+01
 12.748  0.160E+01  0.157E+01
 12.758  0.635E+00  0.622E+00
 12.768  0.846E+00  0.820E+00
 12.778  0.151E+01  0.146E+01
 12.788  0.378E+00  0.365E+00
 12.798  0.444E-01  0.126E-01
 12.808  0.278E+00  0.269E-02
 12.818  0.332E+00  0.457E-02
 12.828  0.903E-01  0.376E-01
 12.838  0.130E+00  0.128E+00
 12.848  0.613E-01  0.611E-01
 12.858  0.102E+00  0.971E-01
 12.868  0.150E+01  0.142E+01
 12.878  0.312E+01  0.296E+01
 12.888  0.218E+01  0.210E+01
 12.898  0.474E+01  0.463E+01
 12.908  0.318E+01  0.311E+01
 12.918  0.164E+01  0.161E+01
 12.928  0.123E+01  0.120E+01
 12.938  0.205E+01  0.200E+01
 12.948  0.132E+01  0.129E+01
 12.958  0.282E+00  0.276E+00
 12.968  0.600E+00  0.590E+00
 12.978  0.363E+01  0.352E+01
 12.988  0.506E+01  0.489E+01
 12.998  0.107E+01  0.103E+01
 13.008  0.319E-01  0.309E-01
 13.018  0.147E-03  0.143E-03
 13.028  0.429E-02  0.411E-02
 13.038  0.203E+00  0.195E+00
 13.048  0.131E+01  0.125E+01
 13.058  0.129E+01  0.123E+01
 13.068  0.168E+01  0.155E+01
 13.078  0.373E+01  0.350E+01
 13.088  0.257E+01  0.243E+01
 13.098  0.342E+00  0.325E+00
 13.108  0.705E+00  0.684E+00
 13.118  0.283E+01  0.272E+01
 13.128  0.182E+01  0.173E+01
 13.138  0.183E+00  0.173E+00
 13.148  0.278E-02  0.262E-02
 13.158  0.605E-05  0.568E-05
 13.168  0.200E-06  0.195E-06
 13.178  0.177E-03  0.173E-03
 13.188  0.214E-01  0.209E-01
 13.198  0.350E+00  0.342E+00
 13.208  0.789E+00  0.759E+00
 13.218  0.603E+00  0.339E+00
 13.228  0.182E+01  0.105E+01
 13.238  0.173E+01  0.142E+01
 13.248  0.103E+01  0.980E+00
 13.258  0.287E+01  0.276E+01
 13.268  0.267E+01  0.258E+01
 13.278  0.590E+00  0.572E+00
 13.288  0.261E-01  0.253E-01
 13.298  0.203E+00  0.198E+00
 13.308  0.184E+01  0.179E+01
 13.318  0.370E+01  0.360E+01
 13.328  0.314E+01  0.306E+01
 13.338  0.196E+01  0.192E+01
 13.348  0.740E+00  0.730E+00
 13.358  0.202E+00  0.201E+00
 13.368  0.166E-01  0.155E-01
 13.378  0.116E+00  0.799E-01
 13.388  0.496E+00  0.342E+00
 13.398  0.289E+00  0.200E+00
 13.408  0.154E+00  0.144E+00
 13.418  0.170E+01  0.166E+01
 13.428  0.299E+01  0.291E+01
 13.438  0.718E+00  0.694E+00
 13.448  0.266E+00  0.108E+00
 13.458  0.172E+01  0.115E+01
 13.468  0.366E+01  0.312E+01
 13.478  0.262E+01  0.245E+01
 13.488  0.174E+01  0.169E+01
 13.498  0.330E+01  0.299E+01
 13.508  0.299E+01  0.166E+01
 13.518  0.142E+01  0.323E+00
 13.528  0.154E+01  0.117E+01
 13.538  0.318E+01  0.291E+01
 13.548  0.152E+01  0.140E+01
 13.558  0.126E+00  0.115E+00
 13.568  0.318E+00  0.310E+00
 13.578  0.146E+01  0.143E+01
 13.588  0.913E+00  0.891E+00
 13.598  0.771E-01  0.753E-01
 13.608  0.399E-02  0.389E-02
 13.618  0.174E+00  0.169E+00
 13.628  0.149E+01  0.145E+01
 13.638  0.262E+01  0.256E+01
 13.648  0.121E+01  0.117E+01
 13.658  0.652E+00  0.622E+00
 13.668  0.112E+01  0.106E+01
 13.678  0.355E+00  0.333E+00
 13.688  0.299E+00  0.256E+00
 13.698  0.261E+01  0.219E+01
 13.708  0.405E+01  0.326E+01
 13.718  0.151E+01  0.119E+01
 13.728  0.216E+01  0.208E+01
 13.738  0.277E+01  0.269E+01
 13.748  0.871E+00  0.806E+00
 13.758  0.153E+01  0.132E+01
 13.768  0.107E+01  0.869E+00
 13.778  0.144E+01  0.934E+00
 13.788  0.107E+01  0.700E+00
 13.798  0.775E+00  0.720E+00
 13.808  0.197E+01  0.191E+01
 13.818  0.203E+01  0.197E+01
 13.828  0.990E+00  0.956E+00
 13.838  0.228E+01  0.218E+01
 13.848  0.365E+01  0.350E+01
 13.858  0.844E+00  0.810E+00
 13.868  0.278E-01  0.267E-01
 13.878  0.142E-03  0.136E-03
 13.888  0.526E-02  0.486E-02
 13.898  0.352E+00  0.323E+00
 13.908  0.322E+01  0.294E+01
 13.918  0.411E+01  0.373E+01
 13.928  0.195E+01  0.183E+01
 13.938  0.333E+01  0.318E+01
 13.948  0.303E+01  0.292E+01
 13.958  0.293E+01  0.280E+01
 13.968  0.155E+01  0.992E+00
 13.978  0.321E+01  0.178E+01
 13.988  0.325E+01  0.225E+01
 13.998  0.250E+01  0.196E+01
 14.008  0.357E+01  0.275E+01
 14.018  0.453E+01  0.329E+01
 14.028  0.241E+01  0.170E+01
 14.038  0.316E+00  0.209E+00
 14.048  0.241E-01  0.194E-01
 14.058  0.315E+00  0.276E+00
 14.068  0.782E+00  0.684E+00
 14.078  0.262E+00  0.230E+00
 14.088  0.128E-01  0.112E-01
 14.098  0.109E+00  0.987E-01
 14.108  0.182E+01  0.163E+01
 14.118  0.419E+01  0.375E+01
 14.128  0.204E+01  0.189E+01
 14.138  0.159E+01  0.156E+01
 14.148  0.422E+00  0.415E+00
 14.158  0.157E-01  0.154E-01
 14.168  0.790E-04  0.777E-04
 14.178  0.552E-07  0.543E-07
 14.188  0.339E-05  0.337E-05
 14.198  0.115E-02  0.114E-02
 14.208  0.530E-01  0.527E-01
 14.218  0.332E+00  0.329E+00
 14.228  0.442E+00  0.360E+00
 14.238  0.235E+01  0.137E+01
 14.248  0.456E+01  0.292E+01
 14.258  0.124E+01  0.865E+00
 14.268  0.508E-01  0.386E-01
 14.278  0.197E+00  0.190E+00
 14.288  0.163E+01  0.154E+01
 14.298  0.365E+01  0.332E+01
 14.308  0.254E+01  0.226E+01
 14.318  0.316E+00  0.279E+00
 14.328  0.535E-01  0.415E-01
 14.338  0.415E+00  0.320E+00
 14.348  0.101E+01  0.835E+00
 14.358  0.239E+01  0.193E+01
 14.368  0.377E+01  0.264E+01
 14.378  0.238E+01  0.178E+01
 14.388  0.594E+00  0.531E+00
 14.398  0.435E-01  0.412E-01
 14.408  0.513E-03  0.489E-03
 14.418  0.836E-06  0.798E-06
 14.428  0.617E-06  0.610E-06
 14.438  0.491E-03  0.486E-03
 14.448  0.531E-01  0.525E-01
 14.458  0.789E+00  0.777E+00
 14.468  0.204E+01  0.193E+01
 14.478  0.347E+01  0.306E+01
 14.488  0.385E+01  0.357E+01
 14.498  0.882E+00  0.843E+00
 14.508  0.309E-01  0.298E-01
 14.518  0.616E-02  0.586E-02
 14.528  0.336E+00  0.314E+00
 14.538  0.295E+01  0.269E+01
 14.548  0.412E+01  0.367E+01
 14.558  0.891E+00  0.779E+00
 14.568  0.285E-01  0.246E-01
 14.578  0.130E-03  0.111E-03
 14.588  0.822E-07  0.704E-07
 14.598  0.611E-09  0.571E-09
 14.608  0.285E-05  0.266E-05
 14.618  0.182E-02  0.170E-02
 14.628  0.157E+00  0.147E+00
 14.638  0.184E+01  0.172E+01
 14.648  0.292E+01  0.273E+01
 14.658  0.955E+00  0.869E+00
 14.668  0.312E+01  0.261E+01
 14.678  0.410E+01  0.331E+01
 14.688  0.803E+00  0.620E+00
 14.698  0.105E+01  0.727E+00
 14.708  0.552E+01  0.376E+01
 14.718  0.410E+01  0.277E+01
 14.728  0.421E+00  0.283E+00
 14.738  0.626E-02  0.410E-02
 14.748  0.306E-01  0.873E-02
 14.758  0.431E+00  0.120E+00
 14.768  0.122E+01  0.270E+00
 14.778  0.174E+01  0.236E+00
 14.788  0.703E+00  0.837E-01
 14.798  0.424E-01  0.499E-02
 14.808  0.393E-03  0.781E-04
 14.818  0.105E-01  0.887E-02
 14.828  0.340E+00  0.288E+00
 14.838  0.155E+01  0.132E+01
 14.848  0.139E+01  0.124E+01
 14.858  0.156E+01  0.147E+01
 14.868  0.128E+01  0.121E+01
 14.878  0.102E+01  0.846E+00
 14.888  0.291E+01  0.212E+01
 14.898  0.174E+01  0.117E+01
 14.908  0.171E+01  0.159E+01
 14.918  0.291E+01  0.280E+01
 14.928  0.896E+00  0.866E+00
 14.938  0.441E-01  0.427E-01
 14.948  0.323E-03  0.313E-03
 14.958  0.488E-06  0.473E-06
 14.968  0.151E-03  0.145E-03
 14.978  0.209E-01  0.201E-01
 14.988  0.463E+00  0.446E+00
 14.998  0.222E+01  0.214E+01
 15.008  0.464E+01  0.444E+01
 15.018  0.433E+01  0.415E+01
 15.028  0.799E+00  0.768E+00
 15.038  0.223E-01  0.215E-01
 15.048  0.902E-04  0.874E-04
 15.058  0.522E-07  0.507E-07
 15.068  0.427E-11  0.415E-11
 15.078  0.499E-09  0.359E-09
 15.088  0.252E-05  0.185E-05
 15.098  0.176E-02  0.132E-02
 15.108  0.171E+00  0.132E+00
 15.118  0.234E+01  0.186E+01
 15.128  0.482E+01  0.397E+01
 15.138  0.270E+01  0.245E+01
 15.148  0.994E+00  0.959E+00
 15.158  0.840E-01  0.814E-01
 15.168  0.191E-02  0.185E-02
 15.178  0.100E+00  0.976E-01
 15.188  0.151E+01  0.147E+01
 15.198  0.312E+01  0.303E+01
 15.208  0.206E+01  0.188E+01
 15.218  0.398E+01  0.347E+01
 15.228  0.313E+01  0.279E+01
 15.238  0.201E+01  0.187E+01
 15.248  0.186E+01  0.178E+01
 15.258  0.148E+01  0.142E+01
 15.268  0.149E+01  0.143E+01
 15.278  0.435E+00  0.391E+00
 15.288  0.163E+01  0.118E+01
 15.298  0.303E+01  0.219E+01
 15.308  0.766E+00  0.554E+00
 15.318  0.355E-01  0.280E-01
 15.328  0.317E+00  0.308E+00
 15.338  0.146E+01  0.142E+01
 15.348  0.935E+00  0.908E+00
 15.358  0.765E+00  0.732E+00
 15.368  0.289E+01  0.277E+01
 15.378  0.180E+01  0.172E+01
 15.388  0.542E+00  0.477E+00
 15.398  0.355E+01  0.331E+01
 15.408  0.675E+01  0.643E+01
 15.418  0.345E+01  0.332E+01
 15.428  0.432E+01  0.398E+01
 15.438  0.577E+01  0.524E+01
 15.448  0.164E+01  0.150E+01
 15.458  0.242E+01  0.204E+01
 15.468  0.275E+01  0.153E+01
 15.478  0.838E+00  0.262E+00
 15.488  0.488E-01  0.117E-01
 15.498  0.419E-03  0.942E-04
 15.508  0.181E-03  0.176E-03
 15.518  0.344E-01  0.334E-01
 15.528  0.886E+00  0.860E+00
 15.538  0.309E+01  0.300E+01
 15.548  0.148E+01  0.143E+01
 15.558  0.739E+00  0.615E+00
 15.568  0.226E+01  0.173E+01
 15.578  0.131E+01  0.792E+00
 15.588  0.162E+00  0.591E-01
 15.598  0.356E+00  0.331E+00
 15.608  0.247E+01  0.220E+01
 15.618  0.398E+01  0.339E+01
 15.628  0.155E+01  0.135E+01
 15.638  0.139E+01  0.126E+01
 15.648  0.280E+01  0.216E+01
 15.658  0.261E+01  0.178E+01
 15.668  0.319E+01  0.225E+01
 15.678  0.112E+01  0.777E+00
 15.688  0.117E+01  0.839E+00
 15.698  0.349E+01  0.267E+01
 15.708  0.320E+01  0.256E+01
 15.718  0.117E+01  0.895E+00
 15.728  0.597E+00  0.438E+00
 15.738  0.726E-01  0.532E-01
 15.748  0.122E-02  0.894E-03
 15.758  0.163E-03  0.151E-03
 15.768  0.136E-01  0.126E-01
 15.778  0.156E+00  0.145E+00
 15.788  0.264E+00  0.245E+00
 15.798  0.298E+00  0.274E+00
 15.808  0.528E+00  0.474E+00
 15.818  0.131E+01  0.112E+01
 15.828  0.121E+01  0.103E+01
 15.838  0.159E+00  0.136E+00
 15.848  0.424E-02  0.294E-02
 15.858  0.103E+00  0.376E-01
 15.868  0.103E+01  0.376E+00
 15.878  0.140E+01  0.519E+00
 15.888  0.315E+00  0.141E+00
 15.898  0.476E-01  0.345E-01
 15.908  0.189E+00  0.141E+00
 15.918  0.127E+01  0.944E+00
 15.928  0.117E+01  0.871E+00
 15.938  0.146E+00  0.109E+00
 15.948  0.313E-02  0.249E-02
 15.958  0.381E-01  0.374E-01
 15.968  0.297E+00  0.292E+00
 15.978  0.313E+00  0.307E+00
 15.988  0.449E-01  0.440E-01
 15.998  0.302E-01  0.286E-01
 16.008  0.583E+00  0.551E+00
 16.018  0.157E+01  0.148E+01
 16.028  0.572E+00  0.540E+00
 16.038  0.121E+00  0.929E-01
 16.048  0.984E+00  0.707E+00
 16.058  0.144E+01  0.103E+01
 16.068  0.844E+00  0.538E+00
 16.078  0.234E+01  0.136E+01
 16.088  0.297E+01  0.178E+01
 16.098  0.287E+01  0.142E+01
 16.108  0.112E+01  0.433E+00
 16.118  0.411E+00  0.316E+00
 16.128  0.245E+01  0.213E+01
 16.138  0.251E+01  0.217E+01
 16.148  0.924E+00  0.722E+00
 16.158  0.891E+00  0.684E+00
 16.168  0.148E+01  0.125E+01
 16.178  0.103E+01  0.874E+00
 16.188  0.102E+00  0.870E-01
 16.198  0.138E-02  0.117E-02
 16.208  0.283E-05  0.242E-05
 16.218  0.295E-03  0.262E-03
 16.228  0.380E-01  0.337E-01
 16.238  0.662E+00  0.588E+00
 16.248  0.156E+01  0.138E+01
 16.258  0.497E+00  0.441E+00
 16.268  0.215E-01  0.191E-01
 16.278  0.125E-03  0.111E-03
 16.288  0.102E-06  0.908E-07
 16.298  0.952E-05  0.840E-05
 16.308  0.406E-02  0.352E-02
 16.318  0.259E+00  0.219E+00
 16.328  0.262E+01  0.213E+01
 16.338  0.430E+01  0.336E+01
 16.348  0.111E+01  0.841E+00
 16.358  0.124E+00  0.833E-01
 16.368  0.137E+01  0.869E+00
 16.378  0.311E+01  0.198E+01
 16.388  0.960E+00  0.611E+00
 16.398  0.210E+00  0.188E+00
 16.408  0.124E+01  0.118E+01
 16.418  0.144E+01  0.127E+01
 16.428  0.232E+01  0.121E+01
 16.438  0.270E+01  0.133E+01
 16.448  0.455E+00  0.224E+00
 16.458  0.104E-01  0.513E-02
 16.468  0.398E-03  0.272E-03
 16.478  0.597E-01  0.440E-01
 16.488  0.146E+01  0.112E+01
 16.498  0.558E+01  0.444E+01
 16.508  0.360E+01  0.287E+01
 16.518  0.410E+00  0.318E+00
 16.528  0.796E-02  0.598E-02
 16.538  0.135E-03  0.113E-03
 16.548  0.198E-01  0.171E-01
 16.558  0.478E+00  0.412E+00
 16.568  0.169E+01  0.144E+01
 16.578  0.242E+01  0.182E+01
 16.588  0.336E+01  0.245E+01
 16.598  0.307E+01  0.260E+01
 16.608  0.523E+01  0.432E+01
 16.618  0.470E+01  0.339E+01
 16.628  0.174E+01  0.132E+01
 16.638  0.165E+01  0.144E+01
 16.648  0.912E+00  0.785E+00
 16.658  0.508E+00  0.429E+00
 16.668  0.262E+01  0.231E+01
 16.678  0.732E+01  0.640E+01
 16.688  0.363E+01  0.317E+01
 16.698  0.692E+00  0.563E+00
 16.708  0.139E+01  0.965E+00
 16.718  0.316E+01  0.213E+01
 16.728  0.117E+01  0.792E+00
 16.738  0.595E-01  0.401E-01
 16.748  0.442E-03  0.308E-03
 16.758  0.873E-02  0.845E-02
 16.768  0.306E+00  0.296E+00
 16.778  0.145E+01  0.140E+01
 16.788  0.931E+00  0.900E+00
 16.798  0.132E+00  0.117E+00
 16.808  0.950E+00  0.724E+00
 16.818  0.265E+01  0.205E+01
 16.828  0.335E+01  0.278E+01
 16.838  0.645E+01  0.546E+01
 16.848  0.301E+01  0.262E+01
 16.858  0.618E+00  0.474E+00
 16.868  0.153E+01  0.107E+01
 16.878  0.781E+00  0.550E+00
 16.888  0.337E+00  0.308E+00
 16.898  0.232E+01  0.221E+01
 16.908  0.272E+01  0.257E+01
 16.918  0.159E+01  0.130E+01
 16.928  0.125E+01  0.972E+00
 16.938  0.173E+00  0.135E+00
 16.948  0.330E-02  0.257E-02
 16.958  0.891E-02  0.839E-02
 16.968  0.309E+00  0.291E+00
 16.978  0.145E+01  0.137E+01
 16.988  0.101E+01  0.953E+00
 16.998  0.157E+01  0.149E+01
 17.008  0.496E+01  0.443E+01
 17.018  0.396E+01  0.322E+01
 17.028  0.135E+01  0.113E+01
 17.038  0.206E+01  0.178E+01
 17.048  0.286E+01  0.238E+01
 17.058  0.285E+01  0.249E+01
 17.068  0.260E+01  0.220E+01
 17.078  0.302E+01  0.230E+01
 17.088  0.205E+01  0.172E+01
 17.098  0.175E+01  0.123E+01
 17.108  0.172E+01  0.618E+00
 17.118  0.137E+01  0.827E+00
 17.128  0.296E+01  0.185E+01
 17.138  0.319E+01  0.189E+01
 17.148  0.438E+01  0.330E+01
 17.158  0.401E+01  0.326E+01
 17.168  0.120E+01  0.999E+00
 17.178  0.188E+00  0.166E+00
 17.188  0.112E+01  0.101E+01
 17.198  0.131E+01  0.119E+01
 17.208  0.208E+00  0.188E+00
 17.218  0.562E-02  0.507E-02
 17.228  0.118E+00  0.106E+00
 17.238  0.162E+01  0.146E+01
 17.248  0.305E+01  0.275E+01
 17.258  0.113E+01  0.102E+01
 17.268  0.803E+00  0.730E+00
 17.278  0.430E+00  0.394E+00
 17.288  0.132E+01  0.122E+01
 17.298  0.112E+01  0.104E+01
 17.308  0.148E+00  0.135E+00
 17.318  0.624E+00  0.501E+00
 17.328  0.295E+01  0.237E+01
 17.338  0.220E+01  0.182E+01
 17.348  0.608E+00  0.550E+00
 17.358  0.780E-01  0.731E-01
 17.368  0.175E-02  0.164E-02
 17.378  0.542E-05  0.509E-05
 17.388  0.228E-08  0.214E-08
 17.398  0.149E-12  0.140E-12
 17.408  0.598E-09  0.541E-09
 17.418  0.244E-05  0.221E-05
 17.428  0.135E-02  0.122E-02
 17.438  0.101E+00  0.911E-01
 17.448  0.102E+01  0.922E+00
 17.458  0.139E+01  0.126E+01
 17.468  0.258E+00  0.234E+00
 17.478  0.647E-02  0.586E-02
 17.488  0.105E-02  0.267E-03
 17.498  0.557E-01  0.134E-01
 17.508  0.408E+00  0.984E-01
 17.518  0.405E+00  0.977E-01
 17.528  0.545E-01  0.131E-01
 17.538  0.990E-03  0.239E-03
 17.548  0.244E-05  0.587E-06
 17.558  0.856E-09  0.232E-09
 17.568  0.257E-06  0.212E-06
 17.578  0.210E-03  0.173E-03
 17.588  0.249E-01  0.207E-01
 17.598  0.438E+00  0.366E+00
 17.608  0.115E+01  0.967E+00
 17.618  0.449E+00  0.379E+00
 17.628  0.164E+00  0.134E+00
 17.638  0.710E+00  0.577E+00
 17.648  0.490E+00  0.398E+00
 17.658  0.457E-01  0.371E-01
 17.668  0.578E-03  0.469E-03
 17.678  0.172E-05  0.143E-05
 17.688  0.558E-03  0.479E-03
 17.698  0.575E-01  0.494E-01
 17.708  0.803E+00  0.690E+00
 17.718  0.152E+01  0.131E+01
 17.728  0.609E+00  0.452E+00
 17.738  0.135E+01  0.728E+00
 17.748  0.109E+01  0.585E+00
 17.758  0.222E+00  0.117E+00
 17.768  0.102E+01  0.534E+00
 17.778  0.146E+01  0.787E+00
 17.788  0.162E+01  0.129E+01
 17.798  0.418E+01  0.348E+01
 17.808  0.243E+01  0.197E+01
 17.818  0.294E+00  0.232E+00
 17.828  0.280E-01  0.233E-01
 17.838  0.501E+00  0.424E+00
 17.848  0.156E+01  0.132E+01
 17.858  0.658E+00  0.556E+00
 17.868  0.464E-01  0.375E-01
 17.878  0.416E+00  0.268E+00
 17.888  0.262E+01  0.169E+01
 17.898  0.224E+01  0.145E+01
 17.908  0.410E+00  0.289E+00
 17.918  0.222E+01  0.175E+01
 17.928  0.530E+01  0.411E+01
 17.938  0.295E+01  0.232E+01
 17.948  0.478E+00  0.388E+00
 17.958  0.154E-01  0.127E-01
 17.968  0.740E-04  0.613E-04
 17.978  0.575E-04  0.560E-04
 17.988  0.806E-02  0.784E-02
 17.998  0.156E+00  0.150E+00
 18.008  0.620E+00  0.504E+00
 18.018  0.227E+01  0.128E+01
 18.028  0.272E+01  0.146E+01
 18.038  0.477E+00  0.258E+00
 18.048  0.573E+00  0.380E+00
 18.058  0.378E+01  0.245E+01
 18.068  0.352E+01  0.223E+01
 18.078  0.451E+00  0.280E+00
 18.088  0.797E-02  0.485E-02
 18.098  0.237E-04  0.153E-04
 18.108  0.208E-02  0.173E-02
 18.118  0.132E+00  0.109E+00
 18.128  0.113E+01  0.938E+00
 18.138  0.131E+01  0.109E+01
 18.148  0.205E+00  0.171E+00
 18.158  0.436E-02  0.363E-02
 18.168  0.125E-04  0.104E-04
 18.178  0.493E-08  0.410E-08
 18.188  0.408E-06  0.337E-06
 18.198  0.431E-03  0.357E-03
 18.208  0.617E-01  0.511E-01
 18.218  0.120E+01  0.989E+00
 18.228  0.313E+01  0.259E+01
 18.238  0.111E+01  0.920E+00
 18.248  0.534E-01  0.442E-01
 18.258  0.347E-03  0.287E-03
 18.268  0.305E-06  0.252E-06
 18.278  0.363E-10  0.300E-10
 18.288  0.585E-15  0.484E-15
 18.298  0.000E+00  0.000E+00
 18.308  0.000E+00  0.000E+00
 18.318  0.000E+00  0.000E+00
 18.328  0.987E-16  0.638E-16
 18.338  0.733E-11  0.474E-11
 18.348  0.737E-07  0.476E-07
 18.358  0.100E-03  0.648E-04
 18.368  0.184E-01  0.119E-01
 18.378  0.459E+00  0.297E+00
 18.388  0.155E+01  0.100E+01
 18.398  0.748E+00  0.489E+00
 18.408  0.101E+01  0.777E+00
 18.418  0.311E+01  0.241E+01
 18.428  0.138E+01  0.105E+01
 18.438  0.602E+00  0.205E+00
 18.448  0.156E+01  0.431E+00
 18.458  0.634E+00  0.174E+00
 18.468  0.348E-01  0.956E-02
 18.478  0.258E-03  0.710E-04
 18.488  0.259E-06  0.713E-07
 18.498  0.429E-10  0.142E-10
 18.508  0.665E-07  0.392E-07
 18.518  0.782E-04  0.461E-04
 18.528  0.125E-01  0.734E-02
 18.538  0.268E+00  0.158E+00
 18.548  0.783E+00  0.461E+00
 18.558  0.309E+00  0.182E+00
 18.568  0.165E-01  0.972E-02
 18.578  0.119E-03  0.703E-04
 18.588  0.117E-06  0.687E-07
 18.598  0.154E-10  0.910E-11
 18.608  0.208E-12  0.199E-12
 18.618  0.410E-08  0.392E-08
 18.628  0.110E-04  0.105E-04
 18.638  0.396E-02  0.379E-02
 18.648  0.194E+00  0.186E+00
 18.658  0.129E+01  0.123E+01
 18.668  0.121E+01  0.115E+01
 18.678  0.977E+00  0.771E+00
 18.688  0.235E+01  0.180E+01
 18.698  0.274E+01  0.213E+01
 18.708  0.912E+00  0.719E+00
 18.718  0.468E-01  0.373E-01
 18.728  0.330E-03  0.266E-03
 18.738  0.318E-06  0.259E-06
 18.748  0.415E-10  0.342E-10
 18.758  0.738E-15  0.615E-15
 18.768  0.000E+00  0.000E+00
 18.778  0.000E+00  0.000E+00
 18.788  0.000E+00  0.000E+00
 18.798  0.000E+00  0.000E+00
 18.808  0.000E+00  0.000E+00
 18.818  0.000E+00  0.000E+00
 18.828  0.000E+00  0.000E+00
 18.838  0.000E+00  0.000E+00
 18.848  0.000E+00  0.000E+00
 18.858  0.000E+00  0.000E+00
 18.868  0.000E+00  0.000E+00
 18.878  0.346E-17  0.288E-17
 18.888  0.440E-12  0.366E-12
 18.898  0.756E-08  0.630E-08
 18.908  0.176E-04  0.147E-04
 18.918  0.554E-02  0.462E-02
 18.928  0.236E+00  0.197E+00
 18.938  0.136E+01  0.113E+01
 18.948  0.106E+01  0.885E+00
 18.958  0.112E+00  0.935E-01
 18.968  0.160E-02  0.134E-02
 18.978  0.310E-05  0.259E-05
 18.988  0.812E-09  0.677E-09
 18.998  0.288E-13  0.240E-13
 19.008  0.000E+00  0.000E+00
 19.018  0.000E+00  0.000E+00
 19.028  0.000E+00  0.000E+00
 19.038  0.000E+00  0.000E+00
 19.048  0.000E+00  0.000E+00
 19.058  0.000E+00  0.000E+00
 19.068  0.000E+00  0.000E+00
 19.078  0.000E+00  0.000E+00
 19.088  0.000E+00  0.000E+00
 19.098  0.000E+00  0.000E+00
 19.108  0.000E+00  0.000E+00
 19.118  0.558E-13  0.135E-13
 19.128  0.123E-08  0.299E-09
 19.138  0.370E-05  0.895E-06
 19.148  0.150E-02  0.363E-03
 19.158  0.821E-01  0.199E-01
 19.168  0.609E+00  0.147E+00
 19.178  0.612E+00  0.148E+00
 19.188  0.831E-01  0.201E-01
 19.198  0.153E-02  0.370E-03
 19.208  0.380E-05  0.921E-06
